Wl (nm),  MAC (m2 g-1)
350.000,  0.15061
351.000,  0.14556
352.000,  0.14060
353.000,  0.13584
354.000,  0.13133
355.000,  0.12688
356.000,  0.12253
357.000,  0.11829
358.000,  0.11424
359.000,  0.11027
360.000,  0.10642
361.000,  0.10280
362.000,  0.09928
363.000,  0.09570
364.000,  0.09233
365.000,  0.08922
366.000,  0.08613
367.000,  0.08301
368.000,  0.08012
369.000,  0.07737
370.000,  0.07476
371.000,  0.07220
372.000,  0.06964
373.000,  0.06719
374.000,  0.06487
375.000,  0.06279
376.000,  0.06062
377.000,  0.05857
378.000,  0.05657
379.000,  0.05472
380.000,  0.05290
381.000,  0.05111
382.000,  0.04947
383.000,  0.04796
384.000,  0.04633
385.000,  0.04482
386.000,  0.04344
387.000,  0.04218
388.000,  0.04079
389.000,  0.03951
390.000,  0.03830
391.000,  0.03718
392.000,  0.03611
393.000,  0.03505
394.000,  0.03400
395.000,  0.03299
396.000,  0.03204
397.000,  0.03124
398.000,  0.03032
399.000,  0.02951
400.000,  0.02867
401.000,  0.02794
402.000,  0.02726
403.000,  0.02647
404.000,  0.02577
405.000,  0.02520
406.000,  0.02463
407.000,  0.02390
408.000,  0.02330
409.000,  0.02282
410.000,  0.02231
411.000,  0.02171
412.000,  0.02125
413.000,  0.02077
414.000,  0.02030
415.000,  0.01988
416.000,  0.01944
417.000,  0.01901
418.000,  0.01860
419.000,  0.01818
420.000,  0.01791
421.000,  0.01750
422.000,  0.01717
423.000,  0.01681
424.000,  0.01646
425.000,  0.01615
426.000,  0.01585
427.000,  0.01553
428.000,  0.01523
429.000,  0.01499
430.000,  0.01475
431.000,  0.01442
432.000,  0.01416
433.000,  0.01396
434.000,  0.01374
435.000,  0.01344
436.000,  0.01324
437.000,  0.01299
438.000,  0.01279
439.000,  0.01258
440.000,  0.01239
441.000,  0.01220
442.000,  0.01198
443.000,  0.01177
444.000,  0.01158
445.000,  0.01144
446.000,  0.01124
447.000,  0.01109
448.000,  0.01090
449.000,  0.01074
450.000,  0.01059
451.000,  0.01043
452.000,  0.01025
453.000,  0.01009
454.000,  0.00998
455.000,  0.00987
456.000,  0.00965
457.000,  0.00951
458.000,  0.00940
459.000,  0.00931
460.000,  0.00917
461.000,  0.00901
462.000,  0.00888
463.000,  0.00878
464.000,  0.00864
465.000,  0.00853
466.000,  0.00841
467.000,  0.00832
468.000,  0.00820
469.000,  0.00806
470.000,  0.00795
471.000,  0.00788
472.000,  0.00775
473.000,  0.00767
474.000,  0.00757
475.000,  0.00745
476.000,  0.00736
477.000,  0.00730
478.000,  0.00716
479.000,  0.00707
480.000,  0.00699
481.000,  0.00690
482.000,  0.00682
483.000,  0.00671
484.000,  0.00661
485.000,  0.00654
486.000,  0.00649
487.000,  0.00641
488.000,  0.00629
489.000,  0.00622
490.000,  0.00615
491.000,  0.00607
492.000,  0.00599
493.000,  0.00593
494.000,  0.00587
495.000,  0.00580
496.000,  0.00570
497.000,  0.00563
498.000,  0.00558
499.000,  0.00550
500.000,  0.00542
501.000,  0.00538
502.000,  0.00531
503.000,  0.00523
504.000,  0.00518
505.000,  0.00515
506.000,  0.00505
507.000,  0.00500
508.000,  0.00492
509.000,  0.00487
510.000,  0.00484
511.000,  0.00475
512.000,  0.00471
513.000,  0.00463
514.000,  0.00460
515.000,  0.00457
516.000,  0.00449
517.000,  0.00444
518.000,  0.00438
519.000,  0.00435
520.000,  0.00428
521.000,  0.00423
522.000,  0.00420
523.000,  0.00415
524.000,  0.00409
525.000,  0.00404
526.000,  0.00400
527.000,  0.00395
528.000,  0.00394
529.000,  0.00387
530.000,  0.00382
531.000,  0.00378
532.000,  0.00373
533.000,  0.00369
534.000,  0.00365
535.000,  0.00364
536.000,  0.00357
537.000,  0.00354
538.000,  0.00349
539.000,  0.00346
540.000,  0.00344
541.000,  0.00339
542.000,  0.00334
543.000,  0.00330
544.000,  0.00327
545.000,  0.00325
546.000,  0.00321
547.000,  0.00316
548.000,  0.00314
549.000,  0.00310
550.000,  0.00308
551.000,  0.00303
552.000,  0.00300
553.000,  0.00298
554.000,  0.00295
555.000,  0.00291
556.000,  0.00289
557.000,  0.00285
558.000,  0.00282
559.000,  0.00281
560.000,  0.00277
561.000,  0.00273
562.000,  0.00272
563.000,  0.00269
564.000,  0.00266
565.000,  0.00262
566.000,  0.00260
567.000,  0.00257
568.000,  0.00255
569.000,  0.00253
570.000,  0.00249
571.000,  0.00248
572.000,  0.00248
573.000,  0.00243
574.000,  0.00240
575.000,  0.00237
576.000,  0.00237
577.000,  0.00233
578.000,  0.00234
579.000,  0.00230
580.000,  0.00226
581.000,  0.00225
582.000,  0.00222
583.000,  0.00221
584.000,  0.00218
585.000,  0.00216
586.000,  0.00215
587.000,  0.00213
588.000,  0.00210
589.000,  0.00209
590.000,  0.00206
591.000,  0.00204
592.000,  0.00203
593.000,  0.00201
594.000,  0.00199
595.000,  0.00197
596.000,  0.00196
597.000,  0.00194
598.000,  0.00192
599.000,  0.00190
600.000,  0.00190
601.000,  0.00187
602.000,  0.00186
603.000,  0.00184
604.000,  0.00182
605.000,  0.00181
606.000,  0.00180
607.000,  0.00179
608.000,  0.00176
609.000,  0.00175
610.000,  0.00173
611.000,  0.00173
612.000,  0.00171
613.000,  0.00169
614.000,  0.00167
615.000,  0.00167
616.000,  0.00165
617.000,  0.00164
618.000,  0.00163
619.000,  0.00162
620.000,  0.00159
621.000,  0.00159
622.000,  0.00158
623.000,  0.00156
624.000,  0.00154
625.000,  0.00154
626.000,  0.00152
627.000,  0.00151
628.000,  0.00151
629.000,  0.00149
630.000,  0.00147
631.000,  0.00148
632.000,  0.00146
633.000,  0.00144
634.000,  0.00143
635.000,  0.00143
636.000,  0.00141
637.000,  0.00140
638.000,  0.00140
639.000,  0.00139
640.000,  0.00137
641.000,  0.00137
642.000,  0.00136
643.000,  0.00135
644.000,  0.00133
645.000,  0.00132
646.000,  0.00131
647.000,  0.00132
648.000,  0.00130
649.000,  0.00130
650.000,  0.00129
651.000,  0.00127
652.000,  0.00126
653.000,  0.00125
654.000,  0.00125
655.000,  0.00124
656.000,  0.00123
657.000,  0.00122
658.000,  0.00123
659.000,  0.00120
660.000,  0.00120
661.000,  0.00120
662.000,  0.00118
663.000,  0.00118
664.000,  0.00116
665.000,  0.00116
666.000,  0.00116
667.000,  0.00115
668.000,  0.00114
669.000,  0.00114
670.000,  0.00113
671.000,  0.00112
672.000,  0.00111
673.000,  0.00111
674.000,  0.00111
675.000,  0.00109
676.000,  0.00109
677.000,  0.00108
678.000,  0.00107
679.000,  0.00107
680.000,  0.00106
681.000,  0.00107
682.000,  0.00106
683.000,  0.00104
684.000,  0.00104
685.000,  0.00103
686.000,  0.00103
687.000,  0.00102
688.000,  0.00102
689.000,  0.00102
690.000,  0.00100
691.000,  0.00101
692.000,  0.00100
693.000,  0.00099
694.000,  0.00099
695.000,  0.00098
696.000,  0.00098
697.000,  0.00098
698.000,  0.00097
699.000,  0.00097
700.000,  0.00096
701.000,  0.00095
702.000,  0.00095
703.000,  0.00094
704.000,  0.00094
705.000,  0.00094
706.000,  0.00094
707.000,  0.00093
708.000,  0.00092
709.000,  0.00092
710.000,  0.00091
711.000,  0.00091
712.000,  0.00091
713.000,  0.00090
714.000,  0.00090
715.000,  0.00090
716.000,  0.00089
717.000,  0.00088
718.000,  0.00088
719.000,  0.00089
720.000,  0.00088
721.000,  0.00087
722.000,  0.00088
723.000,  0.00087
724.000,  0.00086
725.000,  0.00086
726.000,  0.00085
727.000,  0.00086
728.000,  0.00085
729.000,  0.00085
730.000,  0.00084
731.000,  0.00084
732.000,  0.00083
733.000,  0.00083
734.000,  0.00082
735.000,  0.00082
736.000,  0.00082
737.000,  0.00082
738.000,  0.00081
739.000,  0.00081
740.000,  0.00081
741.000,  0.00081
742.000,  0.00081
743.000,  0.00080
744.000,  0.00080
745.000,  0.00079
746.000,  0.00079
747.000,  0.00078
748.000,  0.00079
749.000,  0.00078
750.000,  0.00078
751.000,  0.00077
752.000,  0.00077
753.000,  0.00077
754.000,  0.00077
755.000,  0.00076
756.000,  0.00076
757.000,  0.00076
758.000,  0.00076
759.000,  0.00076
760.000,  0.00075
761.000,  0.00075
762.000,  0.00075
763.000,  0.00075
764.000,  0.00074
765.000,  0.00074
766.000,  0.00074
767.000,  0.00074
768.000,  0.00073
769.000,  0.00073
770.000,  0.00073
771.000,  0.00073
772.000,  0.00073
773.000,  0.00073
774.000,  0.00072
775.000,  0.00072
776.000,  0.00071
777.000,  0.00071
778.000,  0.00071
779.000,  0.00071
780.000,  0.00071
781.000,  0.00071
782.000,  0.00071
783.000,  0.00070
784.000,  0.00071
785.000,  0.00070
786.000,  0.00070
787.000,  0.00069
788.000,  0.00069
789.000,  0.00069
790.000,  0.00069
791.000,  0.00068
792.000,  0.00068
793.000,  0.00069
794.000,  0.00068
795.000,  0.00068
796.000,  0.00068
797.000,  0.00068
798.000,  0.00067
799.000,  0.00068
800.000,  0.00067
