Sample ID:	C:\MCC\MCC Cal\Test\Hemp_Sheets_MCC_30K_min_220112_R1.txt
Sample Weight (mg):	4.64
Heating Rate (C/s):	0.5
Combustor Temp (C):	900
N2 Flow Rate (cc/min):	80
O2 Flow Rate (cc/min):	20
Calibration File:	C:\MCC\MCC Cal\Coeff1 JN10440_30_210304.txt.txt
T Correction Coefficients:	0	1.024463	0
Time Shift (s):	14
*
Time (s)	Temperature (C)	N2 flow rate (cc/min)	O2 flow rate (cc/min)	Flow Rate (cc/min)	Oxygen (%)	HRR (W/g)	Heating rate (C/s)
0.000	113.953	80.009	19.996	104.101	20.201	-0.098	-0.006
0.501	113.982	80.009	19.996	104.096	20.201	-0.121	0.007
1.001	113.917	80.008	19.996	104.096	20.205	-0.381	-0.002
1.500	114.003	80.008	19.997	104.094	20.200	-0.037	-0.007
2.000	113.980	80.008	19.997	104.094	20.201	-0.129	0.042
2.500	113.953	80.009	19.996	104.093	20.203	-0.235	0.006
3.000	113.972	80.007	19.996	104.093	20.202	-0.175	-0.029
3.500	113.944	80.009	19.995	104.093	20.200	-0.023	-0.008
4.000	113.972	80.008	19.995	104.094	20.200	-0.035	-0.004
4.501	113.961	80.008	19.994	104.095	20.200	-0.058	0.008
5.001	113.977	80.009	19.996	104.095	20.201	-0.137	0.011
5.501	113.975	80.009	19.995	104.096	20.199	0.033	0.009
6.000	113.947	80.009	19.994	104.096	20.199	0.048	-0.008
6.501	113.965	80.009	19.993	104.096	20.200	-0.004	-0.020
7.001	113.942	80.009	19.993	104.096	20.199	0.048	-0.008
7.500	113.955	80.007	19.994	104.098	20.202	-0.170	-0.008
8.000	113.971	80.008	19.993	104.098	20.196	0.243	0.010
8.500	113.920	80.009	19.994	104.099	20.197	0.145	-0.003
9.000	113.917	80.008	19.994	104.105	20.197	0.168	-0.045
9.500	113.881	80.009	19.995	104.113	20.195	0.343	-0.047
10.000	113.937	80.009	19.994	104.117	20.198	0.127	-0.009
10.500	113.899	80.010	19.994	104.125	20.196	0.278	0.019
11.000	113.940	80.009	19.994	104.138	20.197	0.210	0.010
11.501	113.907	80.009	19.994	104.147	20.194	0.403	0.005
12.002	113.895	80.009	19.994	104.155	20.192	0.519	-0.018
12.501	113.917	80.008	19.993	104.163	20.188	0.785	-0.017
13.001	113.925	80.010	19.995	104.171	20.189	0.748	0.020
13.502	113.946	80.009	19.994	104.176	20.189	0.744	0.029
14.002	113.939	80.008	19.993	104.183	20.187	0.910	0.022
14.501	113.961	80.009	19.993	104.195	20.185	1.008	0.014
15.000	113.988	80.007	19.995	104.192	20.184	1.099	0.032
15.500	113.949	80.009	19.992	104.184	20.186	0.939	0.019
16.000	113.990	80.009	19.993	104.179	20.183	1.182	-0.005
16.500	114.022	80.009	19.994	104.174	20.184	1.061	0.037
17.000	114.041	80.008	19.994	104.170	20.180	1.356	0.062
17.501	114.029	80.009	19.995	104.187	20.180	1.352	0.030
18.000	114.067	80.008	19.994	104.234	20.177	1.550	0.017
18.500	114.075	80.008	19.994	104.275	20.178	1.506	0.036
19.000	114.078	80.009	19.994	104.295	20.175	1.710	0.028
19.500	114.095	80.007	19.994	104.305	20.176	1.662	0.015
20.000	114.124	80.007	19.993	104.309	20.175	1.737	0.033
20.500	114.191	80.008	19.995	104.287	20.174	1.782	0.071
21.000	114.221	80.008	19.995	104.268	20.171	2.013	0.097
21.500	114.242	80.008	19.994	104.267	20.171	2.027	0.074
22.001	114.297	80.008	19.993	104.266	20.170	2.067	0.063
22.501	114.324	80.008	19.994	104.267	20.168	2.206	0.079
23.001	114.363	80.007	19.995	104.268	20.172	1.957	0.074
23.501	114.402	80.007	19.994	104.271	20.171	2.021	0.072
24.001	114.460	80.007	19.995	104.269	20.170	2.054	0.088
24.501	114.500	80.007	19.996	104.270	20.167	2.289	0.097
25.000	114.572	80.008	19.994	104.271	20.167	2.249	0.105
25.500	114.601	80.008	19.994	104.272	20.166	2.345	0.107
26.001	114.650	80.009	19.995	104.275	20.167	2.305	0.090
26.500	114.693	80.008	19.995	104.279	20.165	2.447	0.085
27.000	114.778	80.008	19.994	104.284	20.165	2.438	0.110
27.501	114.846	80.009	19.993	104.289	20.168	2.236	0.140
28.001	114.886	80.008	19.996	104.294	20.165	2.438	0.130
28.501	114.927	80.008	19.995	104.294	20.164	2.521	0.095
29.001	115.013	80.008	19.994	104.293	20.163	2.544	0.104
29.501	115.082	80.009	19.994	104.294	20.165	2.405	0.141
30.001	115.155	80.008	19.994	104.294	20.164	2.478	0.148
30.500	115.256	80.010	19.994	104.293	20.163	2.529	0.158
31.000	115.309	80.008	19.994	104.297	20.163	2.569	0.164
31.501	115.355	80.008	19.994	104.301	20.162	2.629	0.127
32.000	115.439	80.009	19.995	104.301	20.164	2.521	0.115
32.500	115.489	80.008	19.993	104.301	20.161	2.672	0.132
33.000	115.557	80.009	19.993	104.301	20.161	2.675	0.126
33.500	115.646	80.010	19.992	104.298	20.162	2.617	0.137
34.000	115.741	80.010	19.995	104.294	20.163	2.550	0.170
34.500	115.805	80.009	19.993	104.295	20.159	2.812	0.171
35.001	115.916	80.009	19.994	104.300	20.161	2.715	0.167
35.501	115.974	80.010	19.994	104.305	20.166	2.368	0.172
36.000	116.072	80.010	19.995	104.305	20.158	2.881	0.162
36.500	116.157	80.010	19.994	104.307	20.161	2.722	0.169
37.000	116.273	80.010	19.993	104.312	20.161	2.716	0.192
37.500	116.379	80.010	19.994	104.313	20.161	2.718	0.211
38.000	116.475	80.008	19.994	104.315	20.158	2.886	0.212
38.500	116.540	80.009	19.993	104.321	20.157	2.959	0.182
39.000	116.647	80.010	19.994	104.321	20.157	2.950	0.167
39.500	116.738	80.010	19.992	104.316	20.160	2.764	0.185
40.000	116.852	80.010	19.995	104.316	20.157	3.017	0.201
40.500	116.941	80.009	19.994	104.313	20.159	2.834	0.204
41.000	117.048	80.010	19.994	104.313	20.155	3.129	0.199
41.500	117.146	80.010	19.994	104.315	20.157	3.009	0.201
42.001	117.251	80.009	19.994	104.320	20.156	3.052	0.204
42.501	117.372	80.009	19.995	104.322	20.156	3.079	0.215
43.001	117.518	80.009	19.993	104.324	20.156	3.075	0.247
43.500	117.606	80.008	19.993	104.326	20.158	2.919	0.250
44.000	117.735	80.010	19.994	104.326	20.156	3.039	0.225
44.500	117.849	80.009	19.994	104.322	20.158	2.880	0.230
45.001	117.938	80.009	19.993	104.315	20.158	2.907	0.224
45.500	118.074	80.009	19.993	104.310	20.158	2.934	0.214
46.000	118.158	80.008	19.995	104.306	20.158	2.900	0.222
46.500	118.273	80.009	19.994	104.308	20.157	3.004	0.209
47.000	118.422	80.010	19.994	104.314	20.156	3.054	0.231
47.500	118.560	80.008	19.994	104.322	20.156	3.085	0.275
48.001	118.673	80.008	19.993	104.329	20.158	2.929	0.269
48.501	118.803	80.010	19.994	104.333	20.157	2.965	0.247
49.001	118.919	80.010	19.994	104.334	20.155	3.097	0.245
49.501	119.076	80.008	19.995	104.334	20.157	2.983	0.259
50.001	119.171	80.009	19.994	104.333	20.155	3.112	0.263
50.500	119.300	80.009	19.995	104.334	20.156	3.058	0.239
51.000	119.433	80.010	19.994	104.334	20.157	2.969	0.243
51.500	119.519	80.008	19.994	104.334	20.157	2.992	0.240
52.001	119.674	80.008	19.994	104.335	20.155	3.151	0.230
52.501	119.824	80.009	19.994	104.334	20.155	3.112	0.273
53.000	119.930	80.010	19.994	104.334	20.158	2.939	0.280
53.500	120.071	80.009	19.994	104.334	20.158	2.933	0.252
54.000	120.198	80.009	19.995	104.335	20.154	3.195	0.258
54.500	120.323	80.009	19.995	104.339	20.154	3.199	0.260
55.000	120.494	80.010	19.995	104.344	20.155	3.102	0.274
55.500	120.574	80.010	19.994	104.342	20.155	3.095	0.273
56.000	120.773	80.011	19.994	104.340	20.154	3.195	0.265
56.501	120.940	80.011	19.995	104.341	20.153	3.247	0.322
57.001	121.043	80.010	19.994	104.339	20.154	3.176	0.318
57.500	121.174	80.011	19.996	104.340	20.154	3.182	0.252
58.000	121.356	80.011	19.996	104.343	20.151	3.373	0.274
58.501	121.499	80.011	19.995	104.345	20.153	3.248	0.319
59.001	121.675	80.010	19.995	104.347	20.153	3.278	0.322
59.500	121.795	80.012	19.994	104.349	20.153	3.261	0.308
60.000	121.978	80.010	19.995	104.349	20.152	3.344	0.299
60.500	122.152	80.011	19.995	104.348	20.152	3.329	0.330
61.000	122.264	80.011	19.995	104.348	20.154	3.192	0.322
61.500	122.457	80.010	19.995	104.350	20.153	3.242	0.296
62.000	122.610	80.009	19.996	104.352	20.151	3.429	0.326
62.501	122.776	80.010	19.995	104.352	20.151	3.394	0.333
63.001	122.951	80.011	19.995	104.358	20.152	3.356	0.330
63.501	123.107	80.010	19.995	104.363	20.151	3.425	0.336
64.001	123.264	80.010	19.995	104.365	20.148	3.637	0.322
64.501	123.394	80.010	19.994	104.365	20.149	3.512	0.300
65.001	123.572	80.009	19.995	104.365	20.150	3.458	0.298
65.501	123.736	80.009	19.994	104.357	20.153	3.267	0.325
66.001	123.896	80.009	19.995	104.353	20.152	3.369	0.333
66.501	124.066	80.009	19.994	104.353	20.150	3.458	0.327
67.001	124.271	80.009	19.995	104.353	20.151	3.425	0.353
67.501	124.422	80.010	19.994	104.354	20.151	3.433	0.365
68.001	124.607	80.008	19.994	104.361	20.146	3.732	0.346
68.501	124.768	80.008	19.995	104.364	20.152	3.311	0.341
69.001	124.949	80.010	19.994	104.365	20.149	3.535	0.344
69.501	125.139	80.008	19.995	104.363	20.150	3.472	0.356
70.001	125.288	80.009	19.994	104.364	20.150	3.485	0.355
70.501	125.459	80.008	19.995	104.365	20.150	3.466	0.330
71.001	125.675	80.009	19.994	104.367	20.154	3.194	0.354
71.500	125.831	80.009	19.994	104.367	20.148	3.583	0.380
72.000	126.003	80.009	19.993	104.369	20.149	3.552	0.350
72.501	126.200	80.009	19.994	104.369	20.148	3.587	0.348
73.001	126.405	80.009	19.995	104.369	20.148	3.585	0.386
73.501	126.570	80.009	19.994	104.368	20.149	3.531	0.386
74.001	126.764	80.009	19.994	104.367	20.147	3.657	0.365
74.501	126.959	80.009	19.994	104.366	20.149	3.514	0.374
75.001	127.160	80.008	19.995	104.366	20.149	3.533	0.392
75.500	127.321	80.008	19.994	104.365	20.151	3.387	0.379
76.000	127.521	80.008	19.994	104.366	20.150	3.502	0.361
76.501	127.707	80.009	19.995	104.367	20.150	3.506	0.373
77.001	127.887	80.009	19.994	104.368	20.150	3.445	0.376
77.501	128.025	80.009	19.994	104.368	20.152	3.365	0.342
78.001	128.268	80.008	19.995	104.369	20.147	3.676	0.350
78.501	128.501	80.008	19.993	104.369	20.150	3.450	0.429
79.000	128.723	80.009	19.994	104.369	20.147	3.655	0.466
79.500	128.894	80.008	19.995	104.368	20.152	3.367	0.424
80.000	129.105	80.009	19.994	104.369	20.151	3.437	0.387
80.500	129.307	80.008	19.995	104.368	20.150	3.473	0.398
81.000	129.500	80.008	19.993	104.368	20.147	3.697	0.404
81.500	129.724	80.007	19.993	104.366	20.147	3.655	0.406
82.000	129.922	80.008	19.994	104.366	20.148	3.601	0.419
82.500	130.115	80.008	19.993	104.366	20.148	3.638	0.406
83.001	130.324	80.008	19.994	104.366	20.146	3.759	0.396
83.501	130.531	80.008	19.994	104.367	20.147	3.715	0.409
84.001	130.773	80.008	19.994	104.369	20.145	3.794	0.433
84.501	130.931	80.010	19.994	104.369	20.145	3.827	0.424
85.001	131.158	80.010	19.994	104.369	20.147	3.709	0.392
85.500	131.375	80.008	19.994	104.368	20.148	3.640	0.414
86.001	131.562	80.008	19.994	104.368	20.148	3.634	0.424
86.501	131.788	80.009	19.993	104.368	20.144	3.863	0.409
87.001	131.970	80.010	19.995	104.369	20.145	3.825	0.410
87.501	132.213	80.009	19.994	104.369	20.146	3.757	0.416
88.001	132.424	80.010	19.994	104.369	20.149	3.524	0.439
88.501	132.618	80.009	19.994	104.369	20.147	3.651	0.430
89.002	132.840	80.009	19.994	104.368	20.148	3.649	0.410
89.502	133.071	80.009	19.994	104.368	20.147	3.703	0.435
90.001	133.296	80.009	19.994	104.369	20.147	3.688	0.455
90.501	133.500	80.009	19.994	104.370	20.148	3.622	0.443
91.001	133.681	80.009	19.994	104.369	20.145	3.825	0.407
91.501	133.981	80.010	19.994	104.369	20.148	3.589	0.433
92.001	134.141	80.008	19.994	104.369	20.145	3.852	0.470
92.501	134.405	80.007	19.993	104.368	20.146	3.751	0.442
93.001	134.580	80.010	19.994	104.369	20.147	3.709	0.432
93.501	134.791	80.008	19.994	104.371	20.145	3.798	0.412
94.001	135.031	80.008	19.993	104.371	20.144	3.915	0.419
94.501	135.254	80.008	19.994	104.372	20.146	3.724	0.457
95.001	135.462	80.010	19.994	104.372	20.149	3.541	0.446
95.501	135.678	80.008	19.993	104.371	20.151	3.433	0.427
96.001	135.930	80.007	19.994	104.371	20.146	3.755	0.446
96.500	136.148	80.008	19.993	104.371	20.146	3.765	0.469
97.001	136.390	80.009	19.993	104.371	20.145	3.838	0.465
97.501	136.569	80.007	19.994	104.371	20.148	3.612	0.440
98.001	136.821	80.008	19.994	104.370	20.146	3.769	0.426
98.501	137.056	80.009	19.994	104.369	20.146	3.736	0.459
99.001	137.293	80.008	19.994	104.368	20.145	3.794	0.480
99.501	137.517	80.009	19.994	104.368	20.147	3.663	0.467
100.001	137.753	80.008	19.994	104.368	20.146	3.724	0.460
100.501	137.972	80.008	19.995	104.371	20.146	3.780	0.457
101.001	138.216	80.007	19.995	104.371	20.145	3.848	0.459
101.501	138.450	80.008	19.993	104.372	20.145	3.805	0.471
102.000	138.670	80.006	19.994	104.372	20.148	3.626	0.466
102.501	138.923	80.008	19.995	104.372	20.148	3.641	0.464
103.001	139.101	80.007	19.995	104.371	20.147	3.668	0.452
103.500	139.369	80.008	19.993	104.371	20.146	3.786	0.439
104.001	139.617	80.008	19.993	104.371	20.147	3.668	0.481
104.501	139.823	80.007	19.994	104.370	20.147	3.692	0.485
105.001	140.054	80.008	19.992	104.371	20.147	3.711	0.445
105.501	140.307	80.008	19.994	104.372	20.146	3.726	0.461
106.001	140.572	80.008	19.993	104.373	20.146	3.773	0.501
106.501	140.772	80.006	19.994	104.373	20.146	3.788	0.492
107.001	141.024	80.007	19.992	104.372	20.144	3.898	0.458
107.501	141.235	80.007	19.993	104.373	20.146	3.730	0.457
108.001	141.469	80.008	19.993	104.371	20.146	3.724	0.454
108.501	141.710	80.007	19.993	104.369	20.147	3.709	0.460
109.001	142.012	80.007	19.993	104.369	20.144	3.875	0.509
109.502	142.219	80.010	19.993	104.370	20.148	3.643	0.526
110.001	142.457	80.008	19.993	104.370	20.145	3.805	0.477
110.500	142.712	80.008	19.994	104.369	20.147	3.672	0.469
111.001	142.938	80.009	19.993	104.368	20.143	3.958	0.487
111.501	143.161	80.008	19.992	104.368	20.145	3.809	0.465
112.001	143.396	80.009	19.994	104.368	20.148	3.589	0.454
112.501	143.664	80.010	19.993	104.369	20.146	3.771	0.480
113.001	143.890	80.009	19.994	104.370	20.148	3.603	0.499
113.501	144.132	80.010	19.993	104.372	20.149	3.522	0.481
114.001	144.375	80.009	19.993	104.371	20.148	3.632	0.476
114.501	144.594	80.011	19.992	104.370	20.148	3.583	0.473
115.001	144.858	80.009	19.993	104.368	20.148	3.581	0.472
115.501	145.100	80.010	19.993	104.368	20.150	3.502	0.495
116.001	145.375	80.011	19.995	104.368	20.148	3.643	0.512
116.501	145.603	80.011	19.994	104.369	20.148	3.593	0.510
117.001	145.896	80.010	19.993	104.369	20.145	3.807	0.512
117.501	146.118	80.009	19.994	104.370	20.148	3.649	0.518
118.000	146.358	80.010	19.995	104.370	20.147	3.720	0.489
118.501	146.609	80.010	19.995	104.370	20.146	3.790	0.476
119.001	146.807	80.010	19.994	104.370	20.146	3.728	0.470
119.501	147.074	80.010	19.994	104.370	20.147	3.706	0.457
120.001	147.313	80.009	19.994	104.369	20.146	3.757	0.485
120.501	147.604	80.009	19.996	104.368	20.145	3.839	0.518
121.000	147.806	80.009	19.994	104.368	20.145	3.801	0.511
121.500	148.077	80.010	19.995	104.367	20.145	3.834	0.483
122.000	148.314	80.009	19.995	104.368	20.145	3.795	0.490
122.501	148.580	80.009	19.994	104.367	20.147	3.650	0.505
123.001	148.872	80.009	19.994	104.367	20.145	3.830	0.531
123.501	149.078	80.010	19.994	104.367	20.150	3.452	0.528
124.001	149.304	80.008	19.994	104.367	20.148	3.598	0.465
124.502	149.577	80.009	19.994	104.367	20.147	3.666	0.465
125.001	149.852	80.009	19.995	104.367	20.145	3.830	0.523
125.500	150.123	80.010	19.993	104.367	20.145	3.801	0.547
126.001	150.352	80.009	19.994	104.362	20.149	3.528	0.523
126.501	150.587	80.009	19.994	104.359	20.145	3.806	0.482
127.001	150.823	80.008	19.995	104.358	20.147	3.667	0.468
127.501	151.099	80.010	19.995	104.358	20.147	3.690	0.492
128.000	151.334	80.009	19.995	104.358	20.144	3.878	0.512
128.500	151.596	80.009	19.995	104.360	20.149	3.546	0.503
129.000	151.860	80.008	19.994	104.359	20.146	3.743	0.511
129.500	152.101	80.009	19.994	104.359	20.150	3.490	0.516
130.001	152.383	80.009	19.994	104.357	20.146	3.745	0.515
130.501	152.589	80.010	19.994	104.356	20.148	3.604	0.506
131.000	152.867	80.010	19.994	104.355	20.146	3.733	0.486
131.500	153.108	80.010	19.994	104.351	20.149	3.544	0.501
132.001	153.359	80.010	19.994	104.350	20.147	3.660	0.505
132.501	153.651	80.010	19.994	104.352	20.146	3.733	0.518
133.001	153.862	80.011	19.994	104.354	20.148	3.621	0.523
133.501	154.090	80.011	19.993	104.354	20.147	3.692	0.471
134.001	154.362	80.011	19.993	104.357	20.147	3.709	0.469
134.501	154.603	80.010	19.994	104.357	20.151	3.382	0.507
135.001	154.864	80.010	19.994	104.353	20.149	3.544	0.508
135.501	155.129	80.010	19.994	104.349	20.148	3.584	0.514
136.000	155.366	80.012	19.994	104.346	20.148	3.594	0.514
136.500	155.619	80.011	19.994	104.344	20.148	3.596	0.496
137.000	155.889	80.010	19.994	104.340	20.147	3.656	0.507
137.500	156.096	80.011	19.994	104.339	20.150	3.478	0.500
138.000	156.401	80.012	19.993	104.338	20.146	3.777	0.494
138.500	156.609	80.011	19.994	104.339	20.151	3.420	0.512
139.001	156.872	80.011	19.993	104.342	20.152	3.314	0.492
139.501	157.134	80.011	19.993	104.345	20.151	3.428	0.498
140.001	157.393	80.011	19.994	104.344	20.151	3.412	0.523
140.501	157.657	80.011	19.993	104.342	20.153	3.237	0.522
141.001	157.918	80.011	19.993	104.341	20.150	3.462	0.524
141.500	158.156	80.012	19.993	104.338	20.152	3.327	0.512
142.000	158.428	80.011	19.994	104.334	20.149	3.515	0.504
142.501	158.701	80.010	19.994	104.338	20.149	3.518	0.527
143.001	158.939	80.010	19.995	104.340	20.149	3.572	0.528
143.501	159.180	80.009	19.994	104.340	20.154	3.214	0.495
144.000	159.427	80.010	19.994	104.337	20.150	3.493	0.484
144.500	159.666	80.012	19.994	104.336	20.150	3.488	0.487
145.000	159.928	80.011	19.994	104.331	20.152	3.347	0.493
145.500	160.201	80.010	19.994	104.332	20.153	3.254	0.518
146.000	160.449	80.010	19.994	104.331	20.149	3.559	0.528
146.500	160.684	80.009	19.994	104.333	20.150	3.470	0.502
147.000	160.939	80.009	19.995	104.336	20.150	3.490	0.486
147.500	161.225	80.008	19.995	104.335	20.152	3.355	0.515
148.000	161.468	80.010	19.995	104.333	20.154	3.206	0.535
148.500	161.716	80.007	19.995	104.332	20.153	3.291	0.510
149.001	161.979	80.007	19.994	104.331	20.153	3.272	0.501
149.501	162.259	80.007	19.994	104.328	20.152	3.358	0.527
150.000	162.475	80.009	19.994	104.328	20.150	3.482	0.520
150.500	162.717	80.007	19.995	104.329	20.149	3.534	0.477
151.000	162.999	80.007	19.996	104.329	20.153	3.246	0.491
151.500	163.212	80.006	19.995	104.330	20.151	3.397	0.509
152.000	163.509	80.008	19.996	104.329	20.151	3.424	0.503
152.500	163.760	80.008	19.995	104.329	20.153	3.250	0.529
153.001	164.037	80.007	19.996	104.328	20.151	3.420	0.538
153.501	164.335	80.008	19.996	104.329	20.150	3.497	0.552
154.000	164.603	80.008	19.995	104.329	20.152	3.362	0.570
154.500	164.813	80.008	19.996	104.330	20.155	3.156	0.521
155.000	165.083	80.007	19.995	104.330	20.150	3.443	0.479
155.500	165.343	80.007	19.995	104.330	20.153	3.283	0.505
156.000	165.591	80.008	19.994	104.330	20.152	3.317	0.519
156.500	165.845	80.008	19.995	104.331	20.151	3.427	0.505
157.000	166.097	80.006	19.995	104.331	20.152	3.300	0.504
157.500	166.370	80.008	19.995	104.332	20.151	3.428	0.515
158.000	166.572	80.006	19.995	104.333	20.150	3.462	0.500
158.500	166.842	80.007	19.994	104.334	20.149	3.553	0.474
159.000	167.078	80.007	19.994	104.333	20.152	3.316	0.490
159.500	167.366	80.007	19.995	104.332	20.155	3.105	0.515
160.001	167.619	80.007	19.993	104.331	20.157	3.011	0.532
160.501	167.884	80.008	19.994	104.330	20.154	3.194	0.529
161.001	168.142	80.007	19.995	104.328	20.154	3.192	0.520
161.501	168.375	80.009	19.994	104.327	20.150	3.454	0.507
162.001	168.632	80.007	19.995	104.326	20.153	3.283	0.491
162.501	168.852	80.007	19.994	104.327	20.154	3.167	0.484
163.000	169.108	80.009	19.994	104.326	20.155	3.106	0.476
163.500	169.378	80.008	19.993	104.327	20.151	3.385	0.501
164.000	169.647	80.008	19.994	104.328	20.155	3.121	0.533
164.501	169.876	80.008	19.994	104.329	20.154	3.163	0.518
165.001	170.144	80.007	19.994	104.329	20.153	3.230	0.497
165.500	170.391	80.010	19.995	104.327	20.155	3.111	0.506
166.000	170.624	80.009	19.993	104.322	20.156	3.070	0.498
166.500	170.862	80.008	19.994	104.319	20.156	3.084	0.475
167.000	171.131	80.010	19.993	104.316	20.154	3.206	0.489
167.500	171.389	80.008	19.994	104.317	20.152	3.362	0.517
168.000	171.641	80.008	19.994	104.320	20.152	3.298	0.518
168.500	171.879	80.008	19.993	104.325	20.154	3.196	0.500
169.000	172.150	80.009	19.993	104.326	20.152	3.329	0.500
169.500	172.396	80.008	19.993	104.325	20.153	3.252	0.513
170.000	172.661	80.008	19.993	104.321	20.154	3.163	0.513
170.500	172.885	80.009	19.993	104.316	20.157	3.017	0.500
171.000	173.156	80.007	19.994	104.311	20.154	3.175	0.492
171.500	173.390	80.008	19.995	104.310	20.154	3.188	0.500
172.000	173.659	80.007	19.992	104.312	20.154	3.188	0.504
172.501	173.873	80.009	19.993	104.316	20.152	3.321	0.493
173.001	174.111	80.009	19.993	104.321	20.154	3.182	0.467
173.500	174.412	80.008	19.993	104.323	20.156	3.074	0.496
174.000	174.657	80.009	19.993	104.325	20.155	3.136	0.543
174.500	174.912	80.008	19.993	104.323	20.154	3.184	0.523
175.000	175.173	80.008	19.993	104.316	20.154	3.213	0.508
175.501	175.393	80.008	19.992	104.309	20.154	3.196	0.499
176.001	175.651	80.007	19.994	104.308	20.153	3.232	0.479
176.501	175.849	80.009	19.994	104.307	20.157	2.993	0.466
177.001	176.149	80.007	19.993	104.308	20.158	2.895	0.477
177.500	176.349	80.008	19.995	104.314	20.155	3.136	0.500
178.000	176.637	80.007	19.995	104.322	20.154	3.213	0.494
178.500	176.869	80.008	19.995	104.325	20.155	3.103	0.504
179.000	177.109	80.008	19.994	104.325	20.155	3.157	0.496
179.500	177.348	80.008	19.994	104.325	20.153	3.244	0.475
180.000	177.633	80.007	19.995	104.321	20.156	3.078	0.502
180.500	177.884	80.008	19.994	104.319	20.152	3.303	0.530
181.000	178.095	80.008	19.995	104.320	20.155	3.105	0.499
181.501	178.391	80.007	19.994	104.319	20.154	3.178	0.484
182.000	178.635	80.008	19.993	104.315	20.156	3.031	0.524
182.500	178.872	80.008	19.994	104.316	20.155	3.114	0.511
183.000	179.107	80.008	19.994	104.317	20.154	3.207	0.477
183.500	179.358	80.007	19.994	104.313	20.156	3.020	0.479
184.000	179.617	80.006	19.994	104.314	20.155	3.143	0.498
184.500	179.856	80.008	19.993	104.318	20.155	3.145	0.504
185.000	180.098	80.008	19.994	104.314	20.156	3.081	0.489
185.501	180.343	80.007	19.994	104.312	20.152	3.313	0.484
186.001	180.594	80.007	19.993	104.310	20.152	3.367	0.491
186.501	180.852	80.008	19.994	104.311	20.154	3.189	0.502
187.001	181.072	80.008	19.994	104.313	20.154	3.195	0.493
187.501	181.370	80.008	19.994	104.319	20.155	3.112	0.498
188.001	181.580	80.008	19.993	104.319	20.153	3.278	0.513
188.501	181.828	80.008	19.995	104.323	20.157	3.008	0.483
189.001	182.067	80.008	19.993	104.323	20.151	3.392	0.473
189.501	182.314	80.009	19.994	104.319	20.153	3.263	0.486
190.001	182.592	80.008	19.994	104.312	20.152	3.361	0.506
190.500	182.859	80.008	19.994	104.309	20.151	3.423	0.535
191.000	183.101	80.009	19.994	104.303	20.149	3.574	0.527
191.500	183.304	80.010	19.994	104.298	20.150	3.460	0.477
192.000	183.567	80.008	19.995	104.297	20.150	3.508	0.456
192.501	183.798	80.010	19.993	104.297	20.151	3.369	0.479
193.001	184.047	80.010	19.994	104.297	20.151	3.402	0.487
193.500	184.289	80.010	19.993	104.297	20.150	3.498	0.486
194.000	184.531	80.011	19.994	104.295	20.152	3.303	0.488
194.501	184.790	80.010	19.994	104.297	20.148	3.583	0.492
195.001	185.068	80.009	19.995	104.296	20.149	3.539	0.519
195.500	185.286	80.010	19.994	104.295	20.151	3.425	0.517
196.000	185.543	80.010	19.995	104.294	20.148	3.614	0.486
196.501	185.775	80.010	19.994	104.294	20.148	3.604	0.482
197.001	186.065	80.010	19.993	104.291	20.148	3.610	0.505
197.500	186.272	80.010	19.994	104.292	20.148	3.608	0.510
198.000	186.544	80.010	19.993	104.297	20.148	3.610	0.488
198.501	186.818	80.010	19.994	104.298	20.150	3.473	0.512
199.001	187.040	80.012	19.993	104.299	20.150	3.489	0.521
199.501	187.292	80.009	19.993	104.302	20.149	3.539	0.485
200.001	187.521	80.011	19.993	104.303	20.148	3.600	0.477
200.500	187.800	80.010	19.993	104.301	20.149	3.527	0.495
201.000	188.008	80.011	19.993	104.302	20.149	3.544	0.498
201.500	188.287	80.009	19.994	104.304	20.153	3.290	0.487
202.000	188.498	80.010	19.994	104.306	20.147	3.683	0.488
202.500	188.725	80.010	19.995	104.309	20.149	3.512	0.464
203.000	188.919	80.010	19.994	104.309	20.148	3.587	0.430
203.500	189.204	80.010	19.993	104.308	20.148	3.585	0.450
204.000	189.456	80.010	19.994	104.305	20.148	3.602	0.508
204.500	189.708	80.010	19.994	104.301	20.149	3.556	0.521
205.000	189.949	80.011	19.993	104.300	20.150	3.494	0.499
205.500	190.199	80.008	19.994	104.298	20.148	3.581	0.493
206.000	190.464	80.009	19.993	104.298	20.147	3.702	0.503
206.500	190.713	80.009	19.994	104.298	20.148	3.591	0.514
207.001	190.932	80.010	19.993	104.296	20.148	3.587	0.491
207.500	191.195	80.009	19.995	104.299	20.152	3.328	0.475
208.000	191.395	80.009	19.994	104.304	20.152	3.323	0.472
208.500	191.668	80.008	19.993	104.308	20.150	3.506	0.468
209.000	191.903	80.009	19.993	104.310	20.152	3.336	0.490
209.500	192.148	80.010	19.994	104.311	20.149	3.519	0.494
210.000	192.399	80.009	19.994	104.305	20.151	3.394	0.488
210.500	192.656	80.009	19.994	104.300	20.147	3.673	0.502
211.000	192.901	80.009	19.995	104.295	20.150	3.506	0.505
211.501	193.157	80.010	19.994	104.294	20.149	3.529	0.501
212.001	193.383	80.009	19.995	104.292	20.149	3.569	0.491
212.501	193.648	80.008	19.995	104.296	20.150	3.454	0.487
213.001	193.870	80.009	19.994	104.298	20.150	3.502	0.489
213.500	194.117	80.009	19.996	104.299	20.149	3.556	0.478
214.000	194.383	80.010	19.994	104.301	20.146	3.774	0.491
214.500	194.623	80.010	19.995	104.304	20.146	3.733	0.510
215.000	194.887	80.010	19.995	104.301	20.149	3.516	0.506
215.500	195.082	80.010	19.994	104.299	20.145	3.799	0.482
216.001	195.361	80.009	19.994	104.297	20.149	3.573	0.467
216.501	195.620	80.011	19.995	104.295	20.149	3.523	0.506
217.001	195.874	80.009	19.994	104.294	20.145	3.805	0.525
217.501	196.096	80.009	19.994	104.297	20.148	3.623	0.494
218.001	196.350	80.010	19.994	104.298	20.147	3.714	0.476
218.500	196.620	80.010	19.994	104.298	20.145	3.857	0.500
219.000	196.837	80.010	19.994	104.298	20.147	3.705	0.506
219.500	197.117	80.008	19.994	104.296	20.142	4.050	0.492
220.000	197.349	80.011	19.995	104.292	20.147	3.662	0.505
220.500	197.573	80.009	19.993	104.292	20.148	3.635	0.484
221.000	197.862	80.012	19.994	104.292	20.147	3.658	0.484
221.501	198.079	80.011	19.994	104.292	20.146	3.722	0.509
222.001	198.349	80.010	19.994	104.296	20.145	3.851	0.496
222.500	198.622	80.011	19.994	104.298	20.144	3.876	0.515
223.000	198.852	80.010	19.995	104.299	20.145	3.838	0.523
223.501	199.101	80.011	19.994	104.301	20.148	3.610	0.491
224.000	199.324	80.011	19.994	104.301	20.144	3.882	0.476
224.500	199.590	80.010	19.994	104.298	20.146	3.726	0.480
225.001	199.813	80.011	19.994	104.296	20.145	3.791	0.489
225.500	200.054	80.011	19.994	104.297	20.145	3.839	0.477
226.000	200.293	80.009	19.993	104.299	20.144	3.880	0.472
226.500	200.561	80.010	19.994	104.299	20.144	3.907	0.494
227.000	200.810	80.011	19.994	104.298	20.144	3.874	0.512
227.500	201.038	80.011	19.994	104.298	20.143	3.950	0.497
228.001	201.324	80.010	19.994	104.295	20.144	3.921	0.495
228.500	201.538	80.009	19.993	104.292	20.143	3.951	0.507
229.000	201.788	80.008	19.994	104.299	20.144	3.882	0.482
229.500	202.056	80.009	19.994	104.301	20.146	3.731	0.491
230.000	202.281	80.008	19.993	104.302	20.147	3.652	0.505
230.500	202.523	80.009	19.993	104.305	20.145	3.801	0.480
231.001	202.777	80.008	19.994	104.306	20.149	3.560	0.482
231.501	203.046	80.009	19.994	104.300	20.145	3.847	0.510
232.000	203.289	80.008	19.993	104.300	20.145	3.834	0.517
232.500	203.501	80.008	19.994	104.298	20.146	3.749	0.483
233.000	203.775	80.008	19.992	104.296	20.144	3.913	0.471
233.500	204.052	80.008	19.994	104.300	20.144	3.909	0.519
234.001	204.284	80.008	19.993	104.300	20.147	3.716	0.530
234.501	204.531	80.007	19.994	104.300	20.146	3.751	0.494
235.001	204.769	80.007	19.994	104.300	20.146	3.764	0.482
235.500	205.020	80.007	19.994	104.300	20.146	3.762	0.487
236.001	205.277	80.006	19.993	104.296	20.145	3.849	0.498
236.501	205.520	80.007	19.994	104.297	20.145	3.835	0.504
237.001	205.803	80.005	19.994	104.303	20.146	3.781	0.513
237.500	206.070	80.007	19.996	104.304	20.144	3.911	0.538
238.000	206.248	80.006	19.994	104.306	20.147	3.716	0.497
238.500	206.541	80.006	19.995	104.306	20.149	3.513	0.458
239.001	206.776	80.007	19.995	104.304	20.150	3.480	0.500
239.500	207.060	80.006	19.995	104.298	20.146	3.747	0.523
240.000	207.310	80.008	19.995	104.297	20.148	3.617	0.526
240.501	207.522	80.006	19.994	104.296	20.147	3.679	0.498
241.000	207.810	80.007	19.995	104.296	20.148	3.596	0.481
241.500	208.033	80.007	19.995	104.298	20.147	3.685	0.505
242.000	208.304	80.006	19.993	104.297	20.147	3.718	0.503
242.500	208.538	80.007	19.993	104.297	20.148	3.613	0.500
243.000	208.809	80.007	19.995	104.296	20.148	3.594	0.505
243.501	209.046	80.008	19.995	104.296	20.147	3.656	0.506
244.001	209.318	80.007	19.995	104.293	20.146	3.743	0.508
244.500	209.574	80.008	19.993	104.293	20.146	3.770	0.518
245.000	209.834	80.007	19.994	104.293	20.144	3.907	0.522
245.500	210.083	80.008	19.995	104.293	20.148	3.631	0.513
246.000	210.300	80.007	19.994	104.293	20.144	3.858	0.488
246.500	210.577	80.007	19.995	104.293	20.145	3.799	0.480
247.000	210.824	80.008	19.994	104.293	20.141	4.090	0.509
247.501	211.059	80.007	19.995	104.292	20.143	3.941	0.503
248.000	211.311	80.008	19.995	104.291	20.145	3.797	0.484
248.500	211.538	80.008	19.995	104.291	20.143	3.997	0.483
249.001	211.780	80.007	19.995	104.290	20.142	4.042	0.475
249.501	212.038	80.008	19.994	104.289	20.141	4.069	0.485
250.000	212.326	80.008	19.996	104.290	20.143	3.980	0.523
250.500	212.548	80.007	19.995	104.290	20.141	4.107	0.528
251.000	212.817	80.007	19.995	104.290	20.143	3.992	0.501
251.500	213.053	80.008	19.995	104.290	20.144	3.858	0.498
252.000	213.292	80.007	19.995	104.289	20.144	3.916	0.490
252.501	213.557	80.008	19.995	104.288	20.143	3.968	0.489
253.000	213.808	80.009	19.995	104.288	20.145	3.837	0.510
253.500	214.061	80.009	19.995	104.288	20.141	4.105	0.510
254.000	214.290	80.010	19.995	104.288	20.142	4.065	0.493
254.501	214.603	80.009	19.993	104.288	20.142	4.030	0.512
255.001	214.835	80.008	19.995	104.288	20.142	4.032	0.544
255.500	215.049	80.008	19.994	104.287	20.142	4.057	0.496
256.000	215.318	80.009	19.994	104.288	20.142	4.026	0.465
256.500	215.550	80.008	19.994	104.288	20.144	3.880	0.492
257.000	215.821	80.008	19.995	104.288	20.142	4.007	0.502
257.501	216.063	80.008	19.994	104.289	20.143	3.943	0.508
258.001	216.296	80.008	19.994	104.289	20.143	3.980	0.494
258.500	216.572	80.008	19.993	104.289	20.142	4.022	0.491
259.000	216.825	80.007	19.993	104.290	20.146	3.741	0.519
259.500	217.036	80.008	19.994	104.290	20.141	4.080	0.497
260.000	217.301	80.008	19.994	104.290	20.144	3.926	0.470
260.500	217.586	80.008	19.994	104.290	20.143	3.937	0.513
261.000	217.797	80.008	19.993	104.291	20.144	3.895	0.523
261.501	218.028	80.007	19.994	104.291	20.140	4.196	0.469
262.001	218.343	80.008	19.993	104.291	20.145	3.845	0.494
262.501	218.561	80.007	19.993	104.291	20.142	4.040	0.539
263.000	218.814	80.007	19.994	104.292	20.146	3.747	0.502
263.500	219.042	80.007	19.994	104.293	20.148	3.614	0.476
264.000	219.282	80.007	19.993	104.293	20.146	3.760	0.475
264.500	219.491	80.008	19.994	104.293	20.143	3.943	0.459
265.001	219.761	80.008	19.994	104.294	20.145	3.841	0.464
265.501	220.015	80.008	19.994	104.293	20.144	3.893	0.502
266.001	220.276	80.006	19.993	104.292	20.146	3.745	0.520
266.500	220.537	80.007	19.993	104.292	20.144	3.903	0.518
267.000	220.788	80.008	19.992	104.291	20.146	3.779	0.517
267.501	221.031	80.008	19.993	104.292	20.143	3.995	0.503
268.001	221.270	80.007	19.993	104.294	20.144	3.924	0.487
268.501	221.541	80.007	19.993	104.294	20.143	3.968	0.496
269.001	221.803	80.007	19.994	104.294	20.143	3.953	0.522
269.500	222.011	80.007	19.994	104.294	20.146	3.741	0.502
270.000	222.226	80.007	19.994	104.292	20.145	3.839	0.447
270.501	222.551	80.007	19.993	104.290	20.149	3.515	0.481
271.000	222.773	80.007	19.993	104.290	20.142	4.015	0.543
271.500	223.052	80.008	19.994	104.290	20.146	3.741	0.524
272.000	223.311	80.008	19.994	104.290	20.142	4.065	0.520
272.500	223.573	80.008	19.993	104.291	20.140	4.155	0.530
273.000	223.810	80.008	19.994	104.291	20.142	4.007	0.510
273.500	224.053	80.009	19.994	104.290	20.145	3.810	0.489
274.000	224.303	80.009	19.993	104.290	20.147	3.664	0.487
274.500	224.533	80.009	19.994	104.289	20.145	3.799	0.486
275.001	224.785	80.010	19.994	104.289	20.144	3.872	0.481
275.501	225.058	80.009	19.994	104.289	20.140	4.194	0.504
276.000	225.306	80.010	19.995	104.289	20.143	3.959	0.523
276.500	225.574	80.010	19.994	104.289	20.146	3.760	0.518
277.001	225.836	80.010	19.993	104.290	20.141	4.100	0.523
277.500	226.071	80.009	19.993	104.289	20.143	3.976	0.514
278.000	226.307	80.010	19.994	104.289	20.142	4.022	0.484
278.500	226.598	80.010	19.993	104.288	20.143	3.947	0.499
279.000	226.859	80.011	19.994	104.287	20.140	4.186	0.539
279.500	227.087	80.011	19.994	104.287	20.144	3.874	0.521
280.000	227.314	80.010	19.994	104.287	20.142	4.063	0.472
280.500	227.605	80.009	19.993	104.289	20.144	3.889	0.487
281.000	227.828	80.010	19.994	104.291	20.141	4.086	0.516
281.501	228.078	80.009	19.993	104.292	20.144	3.882	0.493
282.001	228.318	80.010	19.994	104.292	20.144	3.886	0.482
282.500	228.598	80.009	19.993	104.292	20.142	4.038	0.505
283.000	228.871	80.008	19.994	104.291	20.141	4.129	0.537
283.500	229.131	80.009	19.994	104.290	20.143	3.955	0.543
284.001	229.329	80.009	19.997	104.291	20.142	4.061	0.495
284.501	229.614	80.009	19.996	104.297	20.143	3.936	0.471
285.001	229.869	80.009	19.994	104.301	20.144	3.859	0.512
285.500	230.097	80.009	19.994	104.302	20.142	4.024	0.511
286.000	230.363	80.010	19.994	104.302	20.144	3.893	0.488
286.501	230.587	80.009	19.994	104.301	20.143	3.943	0.492
287.000	230.867	80.008	19.993	104.297	20.145	3.824	0.498
287.500	231.136	80.010	19.993	104.292	20.143	3.990	0.527
288.000	231.380	80.008	19.993	104.292	20.144	3.876	0.531
288.500	231.602	80.009	19.993	104.292	20.144	3.872	0.489
289.001	231.868	80.010	19.994	104.292	20.146	3.770	0.476
289.501	232.127	80.010	19.993	104.293	20.146	3.785	0.507
290.000	232.357	80.009	19.993	104.293	20.141	4.101	0.508
290.500	232.597	80.010	19.993	104.293	20.143	3.939	0.480
291.000	232.851	80.008	19.994	104.293	20.144	3.905	0.482
291.500	233.096	80.009	19.994	104.293	20.144	3.880	0.497
292.000	233.344	80.009	19.993	104.293	20.143	3.972	0.496
292.500	233.633	80.009	19.993	104.293	20.144	3.926	0.515
293.001	233.859	80.009	19.993	104.293	20.144	3.922	0.526
293.501	234.119	80.009	19.994	104.293	20.142	4.026	0.500
294.001	234.377	80.009	19.995	104.293	20.143	3.961	0.502
294.501	234.647	80.009	19.994	104.294	20.142	4.046	0.522
295.001	234.910	80.011	19.993	104.294	20.142	4.009	0.530
295.500	235.127	80.009	19.993	104.294	20.144	3.918	0.507
296.000	235.372	80.010	19.993	104.294	20.142	4.040	0.471
296.500	235.633	80.010	19.993	104.294	20.144	3.889	0.484
297.000	235.868	80.009	19.992	104.292	20.143	3.951	0.502
297.500	236.125	80.011	19.994	104.292	20.142	4.044	0.495
298.000	236.349	80.010	19.994	104.292	20.142	4.011	0.487
298.500	236.609	80.010	19.994	104.290	20.144	3.893	0.482
299.001	236.873	80.011	19.993	104.288	20.139	4.221	0.503
299.501	237.167	80.010	19.994	104.287	20.141	4.074	0.541
300.000	237.356	80.010	19.994	104.287	20.143	3.958	0.521
300.500	237.628	80.009	19.993	104.288	20.143	3.995	0.472
301.001	237.855	80.010	19.993	104.290	20.143	3.956	0.480
301.501	238.163	80.010	19.994	104.292	20.143	3.995	0.518
302.001	238.413	80.010	19.993	104.294	20.144	3.914	0.547
302.500	238.668	80.010	19.994	104.295	20.142	4.008	0.532
303.000	238.941	80.011	19.993	104.296	20.142	4.041	0.517
303.500	239.101	80.012	19.994	104.295	20.142	4.029	0.480
304.000	239.363	80.011	19.994	104.295	20.146	3.733	0.427
304.501	239.633	80.010	19.993	104.294	20.145	3.784	0.477
305.001	239.901	80.010	19.994	104.293	20.142	3.985	0.535
305.500	240.135	80.010	19.993	104.292	20.144	3.846	0.520
306.000	240.394	80.009	19.993	104.292	20.141	4.101	0.497
306.500	240.690	80.010	19.994	104.291	20.144	3.911	0.524
307.001	240.882	80.010	19.994	104.291	20.142	4.026	0.521
307.501	241.149	80.009	19.994	104.291	20.141	4.118	0.473
308.000	241.374	80.010	19.994	104.291	20.143	3.916	0.475
308.501	241.662	80.010	19.994	104.291	20.142	4.016	0.502
309.001	241.894	80.010	19.993	104.291	20.142	4.045	0.516
309.500	242.152	80.009	19.994	104.291	20.146	3.726	0.505
310.000	242.399	80.010	19.993	104.286	20.146	3.712	0.498
310.501	242.629	80.009	19.995	104.285	20.150	3.483	0.491
311.001	242.914	80.008	19.994	104.284	20.152	3.343	0.496
311.501	243.095	80.008	19.995	104.281	20.155	3.119	0.490
312.001	243.401	80.008	19.994	104.263	20.159	2.811	0.476
312.501	243.613	80.008	19.994	104.236	20.163	2.575	0.503
313.001	243.817	80.007	19.994	104.190	20.169	2.105	0.467
313.501	244.057	80.008	19.994	104.131	20.167	2.275	0.429
314.000	244.276	80.008	19.995	104.069	20.179	1.423	0.451
314.500	244.473	80.007	19.994	104.017	20.178	1.527	0.438
315.000	244.703	80.009	19.994	103.977	20.182	1.192	0.422
315.501	244.854	80.007	19.993	103.947	20.188	0.820	0.404
316.001	245.047	80.008	19.994	103.927	20.185	1.006	0.363
316.500	245.244	80.008	19.995	103.913	20.189	0.762	0.367
317.000	245.399	80.009	19.994	103.901	20.197	0.192	0.371
317.500	245.480	80.008	19.994	103.891	20.197	0.198	0.294
318.000	245.662	80.009	19.995	103.887	20.200	-0.042	0.249
318.500	245.770	80.010	19.993	103.884	20.202	-0.150	0.277
319.000	245.883	80.009	19.993	103.877	20.202	-0.156	0.256
319.501	245.977	80.009	19.993	103.874	20.205	-0.353	0.214
320.000	246.072	80.009	19.994	103.870	20.206	-0.480	0.198
320.500	246.139	80.008	19.994	103.865	20.213	-0.953	0.175
321.000	246.219	80.008	19.994	103.860	20.209	-0.680	0.154
321.500	246.260	80.009	19.993	103.861	20.214	-0.985	0.134
322.000	246.316	80.008	19.994	103.860	20.216	-1.138	0.109
322.501	246.385	80.009	19.993	103.860	20.218	-1.283	0.110
323.000	246.376	80.009	19.993	103.860	20.217	-1.212	0.093
323.501	246.441	80.008	19.994	103.859	20.217	-1.227	0.058
324.001	246.440	80.011	19.994	103.858	20.220	-1.430	0.060
324.500	246.463	80.008	19.994	103.857	20.220	-1.438	0.043
325.000	246.461	80.010	19.994	103.858	20.219	-1.335	0.022
325.501	246.455	80.009	19.993	103.854	20.219	-1.339	0.006
326.000	246.423	80.010	19.993	103.848	20.221	-1.499	-0.023
326.500	246.370	80.009	19.993	103.824	20.221	-1.499	-0.061
327.000	246.386	80.010	19.995	103.805	20.221	-1.536	-0.061
327.500	246.280	80.010	19.994	103.794	20.224	-1.714	-0.063
328.001	246.304	80.010	19.994	103.793	20.225	-1.781	-0.086
328.501	246.215	80.008	19.994	103.799	20.224	-1.712	-0.074
329.001	246.085	80.008	19.994	103.825	20.224	-1.704	-0.142
329.501	246.123	80.008	19.993	103.872	20.227	-1.922	-0.155
330.001	245.981	80.009	19.994	103.890	20.223	-1.650	-0.098
330.500	245.876	80.009	19.994	103.891	20.222	-1.556	-0.175
331.000	245.875	80.009	19.994	103.888	20.217	-1.239	-0.176
331.501	245.732	80.009	19.993	103.886	20.216	-1.137	-0.126
332.001	245.624	80.008	19.994	103.861	20.208	-0.567	-0.198
332.500	245.541	80.009	19.994	103.881	20.208	-0.592	-0.221
333.000	245.451	80.010	19.994	103.937	20.201	-0.085	-0.182
333.501	245.342	80.009	19.994	104.011	20.201	-0.137	-0.186
334.001	245.233	80.009	19.995	104.092	20.197	0.170	-0.208
334.501	245.222	80.011	19.995	104.174	20.185	1.003	-0.169
335.000	245.112	80.009	19.994	104.236	20.181	1.272	-0.121
335.500	245.046	80.010	19.995	104.278	20.176	1.667	-0.148
336.000	244.993	80.008	19.995	104.305	20.176	1.650	-0.148
336.500	244.954	80.010	19.994	104.326	20.169	2.161	-0.106
337.001	244.858	80.008	19.994	104.342	20.165	2.404	-0.113
337.500	244.839	80.007	19.995	104.354	20.164	2.518	-0.125
338.000	244.806	80.008	19.995	104.362	20.159	2.829	-0.083
338.500	244.786	80.010	19.996	104.368	20.158	2.943	-0.052
339.000	244.822	80.009	19.994	104.372	20.155	3.101	-0.018
339.500	244.801	80.008	19.995	104.378	20.154	3.178	0.015
340.001	244.785	80.009	19.995	104.384	20.154	3.211	-0.011
340.500	244.814	80.007	19.994	104.391	20.150	3.491	-0.012
341.000	244.793	80.007	19.996	104.390	20.147	3.669	0.010
341.500	244.864	80.008	19.996	104.388	20.148	3.589	0.029
342.000	244.898	80.008	19.995	104.384	20.147	3.694	0.078
342.500	244.912	80.008	19.994	104.379	20.143	3.997	0.077
343.000	245.022	80.008	19.994	104.373	20.146	3.732	0.086
343.500	245.071	80.008	19.995	104.370	20.146	3.728	0.141
344.000	245.137	80.008	19.995	104.370	20.141	4.132	0.137
344.500	245.174	80.008	19.995	104.369	20.141	4.093	0.109
345.001	245.225	80.007	19.995	104.371	20.140	4.203	0.095
345.501	245.371	80.007	19.995	104.372	20.138	4.311	0.143
346.001	245.440	80.008	19.996	104.372	20.141	4.106	0.206
346.501	245.592	80.007	19.996	104.374	20.144	3.917	0.218
347.001	245.682	80.009	19.996	104.374	20.143	3.954	0.231
347.501	245.822	80.007	19.994	104.372	20.138	4.309	0.236
348.000	245.970	80.008	19.995	104.372	20.139	4.259	0.259
348.501	246.072	80.008	19.995	104.374	20.136	4.470	0.269
349.001	246.182	80.009	19.994	104.375	20.136	4.433	0.231
349.500	246.301	80.008	19.995	104.374	20.138	4.288	0.221
350.000	246.492	80.008	19.994	104.374	20.139	4.265	0.270
350.500	246.620	80.008	19.995	104.374	20.137	4.396	0.315
351.000	246.734	80.009	19.994	104.372	20.136	4.469	0.280
351.500	246.897	80.009	19.994	104.373	20.137	4.415	0.259
352.000	247.066	80.009	19.994	104.374	20.135	4.519	0.305
352.500	247.231	80.009	19.994	104.374	20.133	4.676	0.334
353.000	247.388	80.010	19.994	104.374	20.136	4.490	0.328
353.500	247.581	80.009	19.994	104.374	20.137	4.382	0.335
354.001	247.761	80.009	19.994	104.372	20.136	4.463	0.361
354.501	247.957	80.009	19.993	104.371	20.135	4.550	0.375
355.001	248.128	80.009	19.993	104.371	20.134	4.568	0.372
355.501	248.351	80.009	19.993	104.372	20.134	4.570	0.380
356.001	248.532	80.011	19.993	104.371	20.133	4.670	0.398
356.500	248.731	80.010	19.992	104.371	20.133	4.668	0.392
357.000	248.950	80.009	19.992	104.371	20.134	4.581	0.400
357.500	249.153	80.010	19.995	104.373	20.135	4.496	0.420
358.000	249.393	80.010	19.995	104.378	20.137	4.371	0.432
358.500	249.603	80.010	19.995	104.378	20.134	4.565	0.446
359.000	249.817	80.011	19.995	104.379	20.135	4.517	0.437
359.500	250.032	80.011	19.994	104.379	20.135	4.561	0.427
360.000	250.308	80.011	19.994	104.375	20.134	4.631	0.460
360.501	250.568	80.011	19.994	104.370	20.134	4.569	0.514
361.001	250.762	80.010	19.994	104.370	20.135	4.529	0.495
361.501	250.996	80.011	19.993	104.369	20.137	4.392	0.441
362.000	251.240	80.011	19.993	104.369	20.136	4.462	0.453
362.500	251.493	80.010	19.994	104.368	20.137	4.367	0.487
363.000	251.734	80.011	19.993	104.368	20.139	4.261	0.495
363.501	251.986	80.009	19.993	104.369	20.133	4.633	0.493
364.001	252.247	80.010	19.994	104.368	20.137	4.411	0.503
364.501	252.466	80.009	19.993	104.368	20.135	4.508	0.497
365.000	252.748	80.008	19.994	104.370	20.134	4.616	0.491
365.500	252.988	80.011	19.995	104.370	20.136	4.481	0.512
366.000	253.238	80.010	19.994	104.370	20.132	4.714	0.506
366.500	253.512	80.010	19.993	104.370	20.133	4.673	0.507
367.001	253.790	80.010	19.994	104.371	20.134	4.610	0.538
367.501	254.038	80.011	19.994	104.370	20.132	4.712	0.539
368.001	254.304	80.009	19.992	104.368	20.133	4.662	0.520
368.501	254.587	80.009	19.993	104.364	20.133	4.660	0.531
369.000	254.865	80.010	19.993	104.365	20.131	4.774	0.555
369.500	255.116	80.009	19.993	104.364	20.134	4.579	0.545
370.001	255.389	80.009	19.995	104.360	20.130	4.888	0.527
370.501	255.660	80.009	19.994	104.359	20.134	4.598	0.534
371.001	256.006	80.010	19.994	104.362	20.132	4.755	0.581
371.501	256.270	80.010	19.994	104.362	20.130	4.895	0.614
372.001	256.532	80.009	19.993	104.363	20.128	4.986	0.568
372.500	256.797	80.010	19.993	104.367	20.129	4.926	0.526
373.000	257.103	80.009	19.994	104.370	20.126	5.140	0.549
373.501	257.404	80.010	19.994	104.370	20.126	5.165	0.590
374.001	257.692	80.009	19.994	104.371	20.130	4.857	0.598
374.501	258.002	80.009	19.994	104.370	20.126	5.158	0.593
375.000	258.286	80.012	19.994	104.371	20.127	5.063	0.596
375.500	258.593	80.011	19.994	104.372	20.128	5.050	0.593
376.000	258.888	80.011	19.992	104.372	20.128	5.015	0.597
376.500	259.214	80.010	19.994	104.370	20.128	5.032	0.611
377.001	259.531	80.010	19.993	104.368	20.126	5.167	0.632
377.501	259.833	80.011	19.994	104.362	20.128	5.048	0.631
378.001	260.103	80.012	19.993	104.357	20.125	5.252	0.596
378.501	260.414	80.011	19.993	104.356	20.122	5.439	0.577
379.001	260.709	80.010	19.992	104.356	20.124	5.276	0.593
379.500	261.009	80.011	19.994	104.358	20.123	5.357	0.600
380.000	261.332	80.010	19.993	104.363	20.122	5.430	0.609
380.501	261.638	80.011	19.994	104.367	20.124	5.299	0.626
381.000	261.965	80.010	19.994	104.367	20.125	5.245	0.631
381.500	262.277	80.011	19.994	104.367	20.121	5.513	0.636
382.000	262.616	80.011	19.994	104.367	20.124	5.297	0.645
382.500	262.934	80.012	19.994	104.363	20.123	5.349	0.654
383.000	263.209	80.012	19.993	104.363	20.119	5.623	0.625
383.501	263.552	80.010	19.993	104.362	20.124	5.323	0.606
384.001	263.859	80.012	19.993	104.360	20.121	5.518	0.634
384.500	264.237	80.012	19.993	104.359	20.118	5.692	0.668
385.000	264.495	80.013	19.993	104.360	20.121	5.501	0.661
385.501	264.894	80.012	19.992	104.360	20.121	5.507	0.646
386.001	265.181	80.013	19.994	104.361	20.123	5.395	0.671
386.500	265.484	80.013	19.993	104.364	20.118	5.721	0.638
387.001	265.825	80.012	19.993	104.362	20.117	5.808	0.617
387.501	266.159	80.012	19.992	104.362	20.119	5.664	0.659
388.000	266.534	80.014	19.993	104.361	20.116	5.886	0.692
388.501	266.824	80.011	19.993	104.360	20.119	5.662	0.687
389.000	267.140	80.012	19.992	104.360	20.114	6.026	0.636
389.500	267.512	80.012	19.993	104.362	20.114	6.018	0.647
390.000	267.855	80.011	19.994	104.363	20.110	6.269	0.701
390.500	268.167	80.011	19.993	104.365	20.109	6.371	0.685
391.000	268.510	80.011	19.993	104.366	20.113	6.057	0.655
391.500	268.827	80.012	19.994	104.366	20.111	6.221	0.657
392.001	269.171	80.011	19.993	104.365	20.108	6.422	0.660
392.500	269.516	80.010	19.994	104.364	20.112	6.163	0.675
393.000	269.854	80.010	19.993	104.361	20.109	6.342	0.686
393.500	270.214	80.010	19.992	104.361	20.113	6.074	0.690
394.000	270.565	80.011	19.994	104.359	20.110	6.250	0.705
394.501	270.913	80.010	19.993	104.355	20.107	6.516	0.706
395.000	271.257	80.009	19.994	104.358	20.108	6.408	0.695
395.500	271.621	80.010	19.994	104.361	20.107	6.508	0.699
396.000	271.949	80.010	19.993	104.361	20.107	6.487	0.700
396.500	272.277	80.010	19.993	104.360	20.106	6.555	0.674
397.000	272.638	80.010	19.994	104.360	20.104	6.719	0.673
397.500	272.996	80.009	19.994	104.357	20.103	6.756	0.704
398.000	273.321	80.009	19.994	104.354	20.101	6.902	0.701
398.501	273.678	80.009	19.994	104.346	20.103	6.800	0.682
399.001	274.016	80.009	19.993	104.342	20.103	6.746	0.688
399.500	274.348	80.009	19.994	104.339	20.102	6.825	0.683
400.000	274.727	80.010	19.994	104.334	20.099	7.070	0.691
400.500	275.043	80.009	19.994	104.329	20.095	7.336	0.703
401.000	275.367	80.011	19.995	104.329	20.100	6.969	0.667
401.501	275.705	80.010	19.994	104.329	20.095	7.326	0.651
402.000	276.025	80.009	19.996	104.328	20.099	7.072	0.660
402.500	276.397	80.009	19.995	104.329	20.097	7.182	0.675
403.000	276.714	80.009	19.994	104.329	20.099	7.076	0.690
403.500	277.050	80.010	19.995	104.329	20.094	7.431	0.671
404.000	277.395	80.009	19.995	104.329	20.096	7.282	0.667
404.500	277.727	80.009	19.995	104.328	20.095	7.327	0.680
405.001	278.034	80.009	19.995	104.324	20.096	7.259	0.658
405.500	278.354	80.009	19.994	104.323	20.092	7.560	0.633
406.001	278.723	80.010	19.995	104.323	20.093	7.479	0.657
406.501	279.064	80.009	19.994	104.322	20.087	7.867	0.699
407.000	279.445	80.010	19.995	104.324	20.091	7.589	0.716
407.500	279.769	80.009	19.995	104.332	20.090	7.700	0.714
408.000	280.141	80.010	19.994	104.334	20.087	7.905	0.701
408.500	280.440	80.009	19.993	104.336	20.084	8.092	0.683
409.000	280.818	80.010	19.995	104.336	20.083	8.162	0.674
409.500	281.086	80.009	19.994	104.335	20.086	7.957	0.662
410.000	281.416	80.010	19.995	104.331	20.087	7.901	0.622
410.500	281.771	80.010	19.995	104.331	20.085	8.041	0.641
411.001	282.097	80.009	19.995	104.329	20.086	7.975	0.683
411.500	282.388	80.009	19.995	104.328	20.085	8.063	0.649
412.000	282.702	80.008	19.994	104.329	20.083	8.200	0.611
412.500	283.056	80.010	19.995	104.328	20.084	8.102	0.637
413.001	283.404	80.008	19.994	104.328	20.079	8.426	0.685
413.501	283.717	80.008	19.994	104.329	20.079	8.436	0.681
414.001	284.045	80.010	19.994	104.334	20.077	8.575	0.651
414.500	284.412	80.009	19.994	104.335	20.077	8.592	0.668
415.000	284.710	80.009	19.994	104.334	20.078	8.519	0.680
415.501	285.059	80.010	19.994	104.335	20.079	8.438	0.656
416.001	285.383	80.010	19.994	104.334	20.077	8.602	0.660
416.501	285.691	80.008	19.994	104.332	20.075	8.712	0.653
417.001	286.036	80.007	19.993	104.331	20.072	8.922	0.642
417.500	286.338	80.009	19.997	104.332	20.073	8.909	0.650
418.000	286.704	80.009	19.998	104.336	20.073	8.892	0.658
418.500	287.013	80.010	19.997	104.344	20.070	9.060	0.671
419.000	287.329	80.009	19.996	104.351	20.069	9.136	0.650
419.500	287.637	80.008	19.996	104.357	20.069	9.150	0.625
420.000	287.943	80.008	19.995	104.359	20.064	9.486	0.619
420.500	288.307	80.009	19.995	104.356	20.064	9.513	0.642
421.000	288.609	80.008	19.993	104.349	20.063	9.582	0.668
421.500	288.940	80.010	19.995	104.342	20.063	9.580	0.650
422.000	289.268	80.009	19.995	104.335	20.062	9.620	0.646
422.500	289.556	80.009	19.997	104.334	20.063	9.567	0.638
423.001	289.865	80.008	19.995	104.334	20.062	9.679	0.606
423.501	290.227	80.009	19.995	104.335	20.061	9.723	0.634
424.001	290.581	80.009	19.994	104.336	20.060	9.805	0.694
424.501	290.874	80.008	19.996	104.337	20.058	9.921	0.681
425.000	291.226	80.008	19.995	104.337	20.057	9.968	0.646
425.500	291.585	80.008	19.995	104.337	20.057	9.997	0.678
426.000	291.847	80.007	19.994	104.337	20.055	10.121	0.666
426.500	292.199	80.008	19.994	104.337	20.055	10.137	0.618
427.000	292.553	80.007	19.995	104.337	20.051	10.397	0.660
427.501	292.830	80.008	19.995	104.337	20.048	10.613	0.669
428.000	293.185	80.007	19.994	104.340	20.051	10.451	0.632
428.500	293.502	80.009	19.994	104.340	20.049	10.584	0.652
429.000	293.825	80.006	19.994	104.343	20.048	10.603	0.656
429.500	294.134	80.008	19.995	104.349	20.047	10.732	0.636
430.001	294.466	80.008	19.994	104.353	20.044	10.931	0.636
430.501	294.786	80.007	19.995	104.356	20.044	10.894	0.647
431.001	295.055	80.007	19.995	104.361	20.039	11.251	0.621
431.500	295.416	80.008	19.994	104.364	20.043	10.989	0.609
432.000	295.709	80.008	19.996	104.359	20.042	11.050	0.642
432.501	296.022	80.008	19.995	104.356	20.040	11.158	0.630
433.001	296.350	80.007	19.995	104.350	20.041	11.150	0.623
433.501	296.685	80.008	19.995	104.342	20.038	11.351	0.651
434.001	296.975	80.008	19.995	104.339	20.036	11.459	0.644
434.500	297.319	80.008	19.995	104.337	20.037	11.411	0.630
435.000	297.631	80.007	19.995	104.335	20.035	11.575	0.645
435.500	297.918	80.008	19.995	104.335	20.035	11.562	0.627
436.000	298.246	80.008	19.995	104.341	20.032	11.736	0.607
436.500	298.559	80.009	19.995	104.344	20.033	11.713	0.628
437.000	298.863	80.008	19.995	104.347	20.030	11.891	0.629
437.500	299.215	80.008	19.995	104.350	20.029	11.986	0.636
438.001	299.492	80.009	19.995	104.350	20.023	12.370	0.642
438.501	299.791	80.009	19.995	104.345	20.021	12.501	0.603
439.000	300.118	80.011	19.995	104.344	20.024	12.288	0.601
439.500	300.454	80.008	19.994	104.342	20.021	12.512	0.644
440.000	300.748	80.010	19.993	104.343	20.022	12.460	0.647
440.500	301.058	80.008	19.995	104.343	20.018	12.764	0.618
441.000	301.364	80.009	19.994	104.344	20.018	12.723	0.610
441.500	301.641	80.009	19.995	104.341	20.017	12.837	0.599
442.000	301.949	80.010	19.995	104.342	20.015	12.935	0.584
442.500	302.241	80.011	19.994	104.340	20.014	13.005	0.593
443.000	302.549	80.010	19.993	104.338	20.008	13.408	0.600
443.501	302.857	80.011	19.994	104.336	20.009	13.335	0.608
444.001	303.164	80.011	19.995	104.338	20.008	13.461	0.615
444.500	303.422	80.010	19.995	104.338	20.002	13.855	0.590
445.000	303.752	80.011	19.995	104.335	20.002	13.861	0.577
445.501	304.056	80.010	19.994	104.337	20.004	13.739	0.611
446.000	304.391	80.010	19.994	104.341	20.000	13.979	0.636
446.500	304.686	80.010	19.993	104.341	20.000	14.011	0.634
447.000	304.966	80.010	19.994	104.344	19.996	14.268	0.602
447.500	305.250	80.009	19.993	104.350	19.995	14.370	0.570
448.001	305.512	80.011	19.993	104.353	19.994	14.418	0.556
448.501	305.844	80.010	19.994	104.354	19.991	14.613	0.570
449.000	306.165	80.010	19.993	104.354	19.991	14.610	0.623
449.500	306.449	80.011	19.994	104.354	19.990	14.716	0.629
450.000	306.778	80.011	19.994	104.351	19.986	14.951	0.609
450.500	307.080	80.010	19.993	104.353	19.986	14.961	0.622
451.000	307.362	80.011	19.993	104.354	19.984	15.142	0.607
451.500	307.621	80.010	19.994	104.357	19.977	15.601	0.562
452.000	307.918	80.010	19.994	104.360	19.978	15.528	0.549
452.500	308.224	80.010	19.992	104.357	19.978	15.543	0.580
453.000	308.466	80.010	19.993	104.359	19.977	15.632	0.576
453.500	308.808	80.012	19.993	104.360	19.975	15.721	0.566
454.001	309.069	80.010	19.993	104.359	19.974	15.849	0.594
454.501	309.404	80.010	19.994	104.359	19.969	16.187	0.600
455.000	309.701	80.010	19.994	104.365	19.967	16.335	0.614
455.500	309.969	80.010	19.994	104.365	19.964	16.515	0.598
456.001	310.239	80.009	19.994	104.365	19.963	16.577	0.551
456.501	310.515	80.008	19.994	104.366	19.960	16.833	0.542
457.001	310.829	80.010	19.994	104.367	19.959	16.872	0.569
457.501	311.074	80.010	19.995	104.366	19.955	17.171	0.575
458.001	311.413	80.010	19.994	104.366	19.957	17.044	0.572
458.500	311.695	80.008	19.993	104.366	19.954	17.216	0.602
459.000	311.975	80.010	19.994	104.365	19.951	17.421	0.591
459.500	312.296	80.010	19.993	104.366	19.945	17.833	0.582
460.000	312.531	80.011	19.994	104.367	19.942	18.044	0.578
460.500	312.850	80.010	19.993	104.367	19.941	18.176	0.555
461.000	313.123	80.010	19.992	104.366	19.937	18.398	0.573
461.500	313.423	80.011	19.994	104.366	19.937	18.449	0.583
462.000	313.705	80.010	19.994	104.366	19.935	18.601	0.577
462.500	313.981	80.010	19.993	104.366	19.933	18.702	0.569
463.000	314.236	80.011	19.992	104.366	19.931	18.852	0.544
463.500	314.563	80.011	19.994	104.366	19.927	19.116	0.557
464.000	314.831	80.011	19.994	104.365	19.925	19.276	0.589
464.500	315.135	80.010	19.995	104.368	19.925	19.291	0.583
465.000	315.406	80.011	19.994	104.370	19.924	19.357	0.574
465.501	315.661	80.013	19.993	104.371	19.921	19.567	0.551
466.001	315.928	80.012	19.994	104.371	19.918	19.771	0.524
466.501	316.209	80.012	19.994	104.372	19.913	20.127	0.535
467.001	316.502	80.012	19.994	104.371	19.909	20.408	0.561
467.501	316.756	80.012	19.993	104.370	19.908	20.466	0.561
468.001	317.066	80.012	19.994	104.371	19.906	20.575	0.556
468.500	317.296	80.012	19.994	104.372	19.904	20.775	0.552
469.000	317.598	80.011	19.993	104.374	19.901	20.991	0.536
469.501	317.836	80.012	19.993	104.376	19.898	21.150	0.536
470.001	318.129	80.011	19.994	104.380	19.894	21.484	0.536
470.500	318.376	80.012	19.993	104.386	19.891	21.635	0.535
471.000	318.640	80.010	19.993	104.390	19.890	21.739	0.525
471.501	318.922	80.010	19.993	104.393	19.886	22.015	0.529
472.001	319.212	80.010	19.994	104.393	19.883	22.204	0.559
472.501	319.518	80.011	19.993	104.388	19.882	22.315	0.584
473.001	319.769	80.010	19.993	104.385	19.876	22.742	0.577
473.501	319.999	80.010	19.994	104.385	19.875	22.775	0.519
474.000	320.283	80.010	19.993	104.385	19.872	23.012	0.498
474.500	320.549	80.009	19.993	104.381	19.871	23.079	0.532
475.000	320.837	80.009	19.993	104.380	19.867	23.380	0.552
475.500	321.082	80.009	19.992	104.377	19.865	23.499	0.544
476.000	321.376	80.009	19.993	104.380	19.861	23.769	0.536
476.501	321.624	80.009	19.995	104.379	19.858	23.989	0.541
477.001	321.888	80.007	19.992	104.384	19.855	24.197	0.528
477.500	322.173	80.009	19.995	104.390	19.850	24.566	0.531
478.000	322.460	80.008	19.996	104.396	19.851	24.475	0.560
478.501	322.702	80.009	19.994	104.398	19.844	24.940	0.551
479.001	322.947	80.008	19.994	104.402	19.841	25.207	0.508
479.501	323.236	80.010	19.994	104.405	19.837	25.440	0.510
480.000	323.499	80.009	19.993	104.407	19.834	25.672	0.543
480.500	323.732	80.010	19.993	104.408	19.831	25.910	0.524
481.000	324.004	80.008	19.995	104.408	19.828	26.073	0.500
481.500	324.256	80.008	19.994	104.410	19.824	26.405	0.515
482.000	324.520	80.009	19.995	104.410	19.819	26.720	0.520
482.500	324.815	80.009	19.994	104.410	19.816	26.902	0.538
483.000	325.083	80.009	19.995	104.411	19.814	27.100	0.561
483.500	325.338	80.007	19.993	104.413	19.811	27.315	0.543
484.000	325.595	80.008	19.994	104.413	19.806	27.642	0.517
484.500	325.847	80.008	19.993	104.414	19.801	28.003	0.511
485.000	326.094	80.008	19.994	104.415	19.796	28.351	0.504
485.501	326.379	80.008	19.993	104.421	19.790	28.744	0.516
486.001	326.635	80.008	19.993	104.427	19.787	29.013	0.537
486.501	326.912	80.008	19.993	104.434	19.783	29.230	0.537
487.000	327.154	80.009	19.994	104.441	19.778	29.636	0.525
487.500	327.418	80.007	19.994	104.447	19.776	29.727	0.512
488.000	327.687	80.009	19.994	104.444	19.771	30.141	0.520
488.501	327.946	80.008	19.993	104.440	19.764	30.577	0.531
489.001	328.178	80.008	19.993	104.438	19.758	31.001	0.509
489.500	328.476	80.009	19.994	104.437	19.755	31.227	0.511
490.000	328.740	80.010	19.993	104.437	19.755	31.255	0.546
490.500	328.967	80.008	19.994	104.441	19.747	31.759	0.526
491.000	329.249	80.010	19.992	104.445	19.742	32.130	0.500
491.500	329.517	80.008	19.993	104.448	19.740	32.306	0.530
492.000	329.751	80.009	19.994	104.449	19.732	32.869	0.527
492.501	330.067	80.008	19.993	104.450	19.728	33.132	0.526
493.000	330.291	80.008	19.994	104.451	19.724	33.378	0.545
493.500	330.540	80.008	19.993	104.451	19.719	33.789	0.507
494.000	330.815	80.008	19.994	104.456	19.712	34.265	0.498
494.500	331.073	80.009	19.994	104.458	19.709	34.491	0.528
495.000	331.338	80.008	19.994	104.458	19.703	34.857	0.528
495.500	331.590	80.009	19.994	104.458	19.698	35.225	0.520
496.000	331.831	80.009	19.992	104.462	19.694	35.514	0.505
496.501	332.106	80.008	19.995	104.465	19.688	35.975	0.505
497.001	332.376	80.009	19.992	104.471	19.683	36.315	0.531
497.500	332.666	80.009	19.994	104.477	19.677	36.693	0.553
498.000	332.943	80.009	19.994	104.482	19.675	36.885	0.563
498.500	333.195	80.009	19.994	104.485	19.664	37.618	0.548
499.000	333.416	80.009	19.993	104.486	19.663	37.707	0.501
499.500	333.696	80.008	19.993	104.485	19.657	38.139	0.487
500.001	333.948	80.009	19.994	104.487	19.651	38.536	0.517
500.501	334.219	80.009	19.994	104.488	19.648	38.792	0.528
501.001	334.486	80.008	19.995	104.489	19.641	39.258	0.530
501.501	334.728	80.008	19.995	104.489	19.634	39.777	0.523
502.000	334.996	80.009	19.994	104.490	19.631	39.971	0.510
502.500	335.237	80.008	19.993	104.491	19.626	40.301	0.510
503.000	335.484	80.007	19.994	104.492	19.614	41.143	0.498
503.501	335.764	80.008	19.994	104.492	19.609	41.500	0.507
504.000	336.011	80.007	19.995	104.494	19.606	41.709	0.527
504.500	336.251	80.009	19.994	104.499	19.598	42.285	0.507
505.000	336.535	80.007	19.995	104.501	19.593	42.655	0.506
505.500	336.820	80.008	19.994	104.503	19.584	43.272	0.547
506.000	337.021	80.008	19.995	104.510	19.578	43.698	0.527
506.501	337.267	80.007	19.994	104.513	19.573	44.076	0.466
507.000	337.567	80.008	19.994	104.514	19.565	44.649	0.496
507.500	337.792	80.007	19.995	104.519	19.558	45.110	0.536
508.000	338.046	80.007	19.995	104.523	19.546	45.971	0.502
508.500	338.320	80.007	19.994	104.522	19.546	45.977	0.503
509.000	338.577	80.008	19.994	104.524	19.536	46.634	0.529
509.500	338.818	80.007	19.995	104.524	19.528	47.217	0.514
510.001	339.070	80.009	19.994	104.525	19.522	47.668	0.495
510.501	339.317	80.008	19.994	104.528	19.516	48.051	0.496
511.001	339.551	80.008	19.995	104.537	19.507	48.726	0.491
511.500	339.827	80.008	19.995	104.545	19.497	49.445	0.496
512.000	340.070	80.008	19.994	104.550	19.489	50.015	0.514
512.500	340.379	80.008	19.995	104.556	19.476	50.930	0.536
513.000	340.585	80.008	19.995	104.558	19.470	51.338	0.533
513.500	340.884	80.009	19.995	104.557	19.462	51.889	0.510
514.000	341.060	80.008	19.995	104.556	19.456	52.285	0.490
514.500	341.345	80.007	19.994	104.558	19.449	52.791	0.468
515.000	341.582	80.008	19.994	104.559	19.441	53.364	0.491
515.500	341.837	80.008	19.995	104.564	19.430	54.144	0.507
516.001	342.129	80.009	19.994	104.565	19.422	54.695	0.520
516.501	342.323	80.009	19.996	104.569	19.412	55.421	0.517
517.000	342.561	80.009	19.994	104.577	19.406	55.857	0.459
517.500	342.814	80.009	19.994	104.584	19.396	56.564	0.461
518.000	343.060	80.010	19.995	104.585	19.386	57.245	0.495
518.500	343.288	80.008	19.994	104.591	19.378	57.805	0.486
519.001	343.538	80.010	19.995	104.596	19.369	58.482	0.476
519.500	343.781	80.010	19.995	104.592	19.359	59.126	0.485
520.000	344.011	80.010	19.995	104.592	19.352	59.636	0.483
520.501	344.302	80.011	19.995	104.598	19.344	60.244	0.497
521.001	344.516	80.011	19.996	104.599	19.334	60.927	0.513
521.501	344.805	80.010	19.995	104.600	19.323	61.664	0.504
522.001	345.019	80.009	19.995	104.608	19.315	62.267	0.503
522.500	345.265	80.010	19.994	104.611	19.306	62.925	0.481
523.000	345.499	80.010	19.994	104.617	19.295	63.640	0.469
523.500	345.755	80.010	19.995	104.620	19.289	64.123	0.485
524.001	346.016	80.009	19.995	104.624	19.277	64.972	0.504
524.501	346.259	80.010	19.994	104.628	19.266	65.713	0.511
525.001	346.510	80.010	19.995	104.632	19.254	66.565	0.499
525.501	346.729	80.011	19.995	104.634	19.244	67.247	0.481
526.001	346.974	80.009	19.995	104.638	19.234	67.983	0.467
526.500	347.219	80.010	19.995	104.642	19.225	68.594	0.477
527.000	347.424	80.008	19.995	104.644	19.215	69.353	0.470
527.501	347.687	80.009	19.995	104.646	19.203	70.183	0.459
528.001	347.951	80.010	19.995	104.650	19.194	70.854	0.498
528.500	348.220	80.008	19.996	104.655	19.180	71.794	0.530
529.000	348.441	80.009	19.996	104.659	19.174	72.230	0.512
529.501	348.712	80.009	19.996	104.664	19.160	73.187	0.491
530.000	348.952	80.010	19.996	104.671	19.150	73.948	0.501
530.500	349.214	80.008	19.995	104.672	19.138	74.752	0.507
531.001	349.453	80.008	19.995	104.674	19.128	75.491	0.501
531.501	349.741	80.010	19.995	104.678	19.115	76.414	0.514
532.001	349.940	80.009	19.994	104.681	19.104	77.177	0.507
532.500	350.171	80.010	19.995	104.681	19.089	78.240	0.459
533.000	350.411	80.009	19.996	104.682	19.081	78.823	0.450
533.501	350.671	80.009	19.996	104.683	19.070	79.562	0.486
534.001	350.883	80.010	19.995	104.684	19.058	80.464	0.487
534.501	351.155	80.009	19.994	104.689	19.047	81.228	0.478
535.001	351.402	80.010	19.996	104.697	19.036	81.991	0.501
535.500	351.615	80.009	19.996	104.705	19.023	82.883	0.489
536.000	351.899	80.009	19.996	104.712	19.012	83.687	0.479
536.500	352.084	80.009	19.994	104.718	19.002	84.426	0.483
537.000	352.357	80.010	19.994	104.721	18.985	85.595	0.463
537.501	352.585	80.011	19.997	104.723	18.974	86.390	0.480
538.000	352.863	80.010	19.995	104.730	18.960	87.361	0.504
538.500	353.109	80.010	19.995	104.737	18.950	88.116	0.515
539.000	353.339	80.010	19.995	104.744	18.942	88.650	0.500
539.500	353.599	80.010	19.996	104.748	18.931	89.410	0.483
540.000	353.839	80.011	19.994	104.754	18.917	90.413	0.495
540.500	354.103	80.010	19.995	104.755	18.903	91.389	0.502
541.000	354.300	80.010	19.994	104.756	18.889	92.367	0.483
541.500	354.599	80.010	19.995	104.757	18.879	93.091	0.479
542.001	354.807	80.011	19.993	104.764	18.865	94.094	0.501
542.500	355.008	80.011	19.994	104.768	18.854	94.864	0.458
543.000	355.273	80.011	19.994	104.775	18.839	95.938	0.437
543.501	355.485	80.010	19.993	104.780	18.830	96.584	0.472
544.000	355.759	80.012	19.993	104.787	18.816	97.535	0.482
544.500	356.003	80.012	19.995	104.792	18.803	98.467	0.502
545.001	356.254	80.012	19.994	104.795	18.791	99.323	0.507
545.500	356.501	80.011	19.994	104.796	18.779	100.175	0.496
546.000	356.686	80.012	19.994	104.800	18.767	100.990	0.465
546.500	356.952	80.011	19.994	104.802	18.754	101.939	0.442
547.000	357.171	80.012	19.995	104.803	18.738	103.079	0.468
547.500	357.432	80.012	19.993	104.809	18.727	103.833	0.482
548.000	357.689	80.012	19.994	104.817	18.714	104.792	0.498
548.500	357.889	80.011	19.993	104.822	18.700	105.760	0.487
549.001	358.174	80.010	19.994	104.829	18.691	106.393	0.471
549.501	358.398	80.011	19.993	104.835	18.679	107.245	0.497
550.001	358.649	80.012	19.994	104.839	18.664	108.346	0.492
550.501	358.864	80.012	19.994	104.840	18.653	109.105	0.471
551.001	359.116	80.011	19.993	104.842	18.640	109.987	0.467
551.501	359.360	80.012	19.992	104.843	18.625	111.061	0.482
552.000	359.621	80.013	19.994	104.847	18.619	111.485	0.501
552.500	359.838	80.011	19.994	104.849	18.599	112.878	0.491
553.000	360.127	80.011	19.993	104.849	18.589	113.595	0.492
553.500	360.335	80.011	19.994	104.853	18.577	114.478	0.502
554.001	360.584	80.010	19.993	104.859	18.565	115.340	0.477
554.501	360.798	80.009	19.993	104.862	18.551	116.266	0.460
555.001	361.055	80.009	19.993	104.866	18.539	117.122	0.467
555.501	361.308	80.010	19.994	104.872	18.529	117.827	0.490
556.001	361.577	80.010	19.993	104.875	18.519	118.578	0.515
556.500	361.790	80.009	19.993	104.877	18.506	119.460	0.502
557.000	362.021	80.009	19.993	104.878	18.494	120.321	0.463
557.501	362.267	80.008	19.994	104.880	18.481	121.257	0.461
558.001	362.516	80.008	19.994	104.882	18.474	121.736	0.486
558.501	362.714	80.009	19.994	104.885	18.462	122.547	0.471
559.000	362.977	80.008	19.994	104.886	18.455	123.078	0.454
559.500	363.209	80.009	19.994	104.886	18.438	124.278	0.478
560.001	363.454	80.009	19.993	104.891	18.427	125.066	0.486
560.501	363.722	80.009	19.993	104.898	18.420	125.562	0.495
561.000	363.965	80.008	19.994	104.903	18.410	126.258	0.512
561.500	364.186	80.009	19.993	104.910	18.394	127.396	0.488
562.000	364.427	80.009	19.994	104.916	18.386	127.918	0.463
562.501	364.677	80.008	19.993	104.918	18.384	128.115	0.477
563.001	364.922	80.009	19.994	104.918	18.369	129.153	0.493
563.500	365.155	80.008	19.994	104.918	18.363	129.537	0.486
564.000	365.416	80.008	19.994	104.917	18.351	130.395	0.486
564.500	365.699	80.008	19.995	104.918	18.343	130.941	0.519
565.000	365.913	80.008	19.994	104.918	18.334	131.583	0.520
565.500	366.150	80.010	19.993	104.918	18.324	132.329	0.474
566.000	366.387	80.009	19.993	104.919	18.320	132.571	0.463
566.501	366.639	80.010	19.994	104.920	18.313	133.097	0.482
567.001	366.896	80.008	19.994	104.920	18.302	133.860	0.498
567.501	367.100	80.010	19.993	104.919	18.295	134.321	0.485
568.001	367.357	80.008	19.993	104.919	18.290	134.690	0.461
568.500	367.556	80.010	19.992	104.918	18.282	135.234	0.459
569.000	367.839	80.010	19.995	104.915	18.274	135.813	0.469
569.500	368.055	80.009	19.994	104.915	18.272	135.919	0.491
570.000	368.304	80.008	19.994	104.915	18.263	136.593	0.482
570.500	368.570	80.008	19.995	104.914	18.256	137.023	0.490
571.000	368.812	80.010	19.994	104.914	18.256	137.079	0.511
571.500	369.094	80.011	19.995	104.917	18.246	137.739	0.516
572.000	369.334	80.010	19.994	104.916	18.240	138.168	0.523
572.500	369.564	80.009	19.994	104.918	18.238	138.287	0.496
573.000	369.835	80.009	19.995	104.918	18.235	138.485	0.485
573.500	370.067	80.009	19.994	104.917	18.231	138.778	0.502
574.001	370.308	80.008	19.993	104.917	18.229	138.910	0.488
574.500	370.585	80.010	19.994	104.917	18.226	139.137	0.496
575.000	370.795	80.010	19.993	104.916	18.226	139.123	0.503
575.500	371.078	80.009	19.994	104.915	18.225	139.190	0.491
576.000	371.351	80.010	19.994	104.916	18.222	139.376	0.525
576.500	371.597	80.010	19.993	104.915	18.223	139.287	0.537
577.000	371.862	80.009	19.993	104.914	18.219	139.580	0.515
577.500	372.102	80.009	19.993	104.913	18.223	139.269	0.508
578.000	372.371	80.009	19.994	104.909	18.224	139.207	0.507
578.500	372.657	80.010	19.994	104.903	18.225	139.091	0.532
579.000	372.878	80.010	19.993	104.895	18.226	138.995	0.531
579.500	373.175	80.008	19.993	104.889	18.231	138.678	0.512
580.000	373.449	80.009	19.994	104.880	18.231	138.640	0.544
580.501	373.737	80.010	19.993	104.877	18.236	138.250	0.566
581.001	373.943	80.009	19.993	104.875	18.241	137.944	0.528
581.501	374.212	80.009	19.994	104.874	18.244	137.720	0.485
582.001	374.505	80.009	19.994	104.874	18.250	137.235	0.519
582.501	374.758	80.009	19.994	104.870	18.255	136.928	0.554
583.000	375.014	80.010	19.994	104.865	18.260	136.536	0.528
583.501	375.282	80.009	19.994	104.857	18.270	135.832	0.517
584.000	375.552	80.008	19.994	104.849	18.278	135.273	0.531
584.500	375.810	80.009	19.994	104.841	18.287	134.626	0.533
585.000	376.069	80.010	19.992	104.836	18.294	134.060	0.523
585.500	376.362	80.009	19.994	104.829	18.304	133.384	0.535
586.001	376.632	80.011	19.994	104.822	18.317	132.474	0.558
586.501	376.888	80.009	19.994	104.814	18.325	131.874	0.544
587.001	377.143	80.009	19.995	104.807	18.338	130.959	0.518
587.500	377.432	80.009	19.994	104.801	18.348	130.229	0.527
588.000	377.696	80.009	19.994	104.796	18.366	128.988	0.549
588.500	377.987	80.009	19.994	104.789	18.377	128.173	0.554
589.000	378.247	80.009	19.993	104.781	18.388	127.376	0.553
589.500	378.539	80.008	19.993	104.773	18.406	126.129	0.552
590.000	378.761	80.008	19.994	104.761	18.421	125.068	0.533
590.500	379.022	80.009	19.993	104.748	18.440	123.689	0.499
591.000	379.332	80.008	19.996	104.738	18.453	122.762	0.527
591.500	379.616	80.008	19.995	104.731	18.475	121.183	0.582
592.001	379.905	80.009	19.995	104.723	18.491	120.096	0.583
592.501	380.190	80.008	19.994	104.719	18.511	118.628	0.574
593.000	380.411	80.008	19.995	104.714	18.527	117.491	0.541
593.500	380.676	80.008	19.995	104.707	18.546	116.203	0.496
594.001	381.001	80.009	19.995	104.700	18.567	114.714	0.538
594.501	381.282	80.009	19.995	104.689	18.588	113.216	0.597
595.001	381.549	80.009	19.994	104.674	18.611	111.583	0.577
595.500	381.770	80.008	19.995	104.663	18.634	109.978	0.518
596.000	382.064	80.008	19.994	104.653	18.654	108.557	0.502
596.501	382.358	80.008	19.995	104.639	18.681	106.674	0.552
597.001	382.645	80.008	19.992	104.632	18.704	105.026	0.585
597.500	382.892	80.016	19.998	104.625	18.729	103.276	0.557
598.001	383.184	80.016	19.997	104.617	18.753	101.553	0.536
598.500	383.440	80.011	19.997	104.610	18.780	99.654	0.544
599.000	383.740	80.009	19.997	104.603	18.805	97.903	0.552
599.501	384.013	80.010	19.997	104.592	18.831	96.125	0.564
600.001	384.283	80.009	19.995	104.584	18.858	94.216	0.558
600.501	384.584	80.010	19.996	104.576	18.885	92.299	0.557
601.000	384.838	80.011	19.996	104.566	18.908	90.711	0.564
601.500	385.116	80.009	19.995	104.554	18.935	88.778	0.544
602.000	385.398	80.011	19.996	104.543	18.961	86.952	0.546
602.500	385.685	80.011	19.994	104.534	18.986	85.158	0.565
603.000	385.955	80.011	19.995	104.519	19.013	83.321	0.563
603.500	386.246	80.010	19.995	104.508	19.038	81.507	0.559
604.000	386.492	80.010	19.995	104.500	19.069	79.342	0.549
604.501	386.780	80.011	19.994	104.492	19.095	77.503	0.536
605.001	387.097	80.011	19.993	104.486	19.121	75.684	0.570
605.501	387.358	80.012	19.994	104.485	19.151	73.603	0.591
606.000	387.664	80.012	19.993	104.481	19.180	71.561	0.572
606.500	387.947	80.011	19.994	104.473	19.205	69.804	0.578
607.000	388.212	80.011	19.993	104.467	19.231	67.957	0.568
607.501	388.475	80.010	19.994	104.459	19.257	66.110	0.538
608.001	388.784	80.009	19.995	104.450	19.289	63.867	0.551
608.501	389.026	80.011	19.993	104.442	19.316	61.995	0.562
609.001	389.310	80.010	19.993	104.440	19.341	60.237	0.538
609.501	389.581	80.010	19.994	104.434	19.367	58.426	0.541
610.001	389.866	80.010	19.993	104.432	19.390	56.797	0.555
610.500	390.131	80.009	19.993	104.426	19.418	54.875	0.553
611.000	390.413	80.010	19.994	104.422	19.442	53.136	0.549
611.501	390.709	80.009	19.993	104.416	19.468	51.356	0.563
612.001	390.957	80.009	19.994	104.415	19.493	49.556	0.561
612.500	391.277	80.010	19.994	104.407	19.518	47.845	0.556
613.000	391.533	80.010	19.995	104.406	19.541	46.236	0.572
613.501	391.857	80.008	19.994	104.405	19.561	44.770	0.578
614.000	392.141	80.009	19.994	104.404	19.585	43.105	0.594
614.500	392.403	80.009	19.994	104.399	19.609	41.450	0.576
615.000	392.692	80.008	19.994	104.397	19.630	39.966	0.548
615.501	392.954	80.009	19.993	104.390	19.652	38.383	0.551
616.001	393.250	80.009	19.993	104.383	19.672	37.037	0.555
616.500	393.565	80.009	19.993	104.377	19.693	35.528	0.585
617.000	393.828	80.008	19.994	104.374	19.712	34.196	0.594
617.500	394.086	80.009	19.995	104.371	19.730	32.944	0.550
618.000	394.347	80.009	19.994	104.370	19.750	31.524	0.520
618.500	394.671	80.009	19.995	104.370	19.769	30.183	0.552
619.000	394.947	80.010	19.994	104.368	19.789	28.804	0.593
619.500	395.254	80.009	19.994	104.365	19.803	27.849	0.592
620.000	395.525	80.010	19.993	104.364	19.820	26.609	0.581
620.501	395.830	80.009	19.993	104.362	19.839	25.309	0.577
621.000	396.113	80.010	19.993	104.358	19.855	24.196	0.582
621.500	396.389	80.009	19.995	104.357	19.870	23.151	0.573
622.000	396.661	80.010	19.995	104.353	19.883	22.194	0.553
622.500	396.947	80.009	19.994	104.346	19.896	21.269	0.553
623.001	397.255	80.009	19.994	104.343	19.910	20.291	0.576
623.501	397.531	80.010	19.993	104.347	19.924	19.316	0.589
624.001	397.825	80.009	19.994	104.344	19.936	18.487	0.577
624.500	398.093	80.010	19.994	104.349	19.946	17.757	0.566
625.000	398.349	80.009	19.996	104.349	19.958	16.916	0.543
625.501	398.648	80.010	19.995	104.346	19.971	15.999	0.539
626.000	398.916	80.009	19.994	104.339	19.982	15.290	0.561
626.500	399.224	80.011	19.994	104.337	19.989	14.780	0.571
627.001	399.461	80.009	19.994	104.331	19.999	14.099	0.560
627.501	399.775	80.011	19.994	104.331	20.005	13.673	0.548
628.000	400.058	80.010	19.993	104.331	20.018	12.716	0.574
628.500	400.314	80.011	19.995	104.331	20.026	12.162	0.568
629.000	400.590	80.010	19.994	104.332	20.031	11.794	0.536
629.500	400.891	80.009	19.994	104.332	20.039	11.259	0.555
630.000	401.162	80.012	19.993	104.332	20.045	10.817	0.575
630.500	401.445	80.010	19.996	104.332	20.051	10.399	0.563
631.000	401.745	80.013	19.993	104.333	20.057	9.994	0.568
631.500	402.017	80.010	19.993	104.332	20.063	9.600	0.577
632.000	402.278	80.011	19.994	104.334	20.067	9.305	0.553
632.500	402.576	80.011	19.993	104.334	20.075	8.736	0.546
633.000	402.870	80.009	19.993	104.337	20.081	8.302	0.576
633.500	403.152	80.011	19.994	104.338	20.084	8.100	0.585
634.000	403.420	80.010	19.994	104.338	20.086	7.961	0.563
634.500	403.701	80.011	19.993	104.336	20.091	7.621	0.549
635.000	403.958	80.010	19.993	104.338	20.094	7.394	0.543
635.500	404.264	80.009	19.994	104.335	20.099	7.031	0.550
636.001	404.521	80.010	19.993	104.333	20.100	6.952	0.563
636.501	404.780	80.010	19.994	104.333	20.105	6.622	0.540
637.001	405.107	80.011	19.993	104.333	20.104	6.684	0.551
637.501	405.351	80.010	19.994	104.330	20.107	6.481	0.578
638.001	405.637	80.009	19.993	104.329	20.110	6.264	0.551
638.500	405.875	80.010	19.994	104.329	20.115	5.957	0.527
639.000	406.195	80.009	19.994	104.328	20.115	5.941	0.541
639.501	406.468	80.009	19.995	104.327	20.116	5.882	0.575
640.001	406.718	80.010	19.994	104.328	20.119	5.625	0.558
640.501	406.969	80.009	19.993	104.326	20.119	5.677	0.512
641.000	407.230	80.009	19.993	104.326	20.122	5.417	0.507
641.500	407.519	80.009	19.993	104.326	20.121	5.484	0.531
642.000	407.801	80.009	19.995	104.326	20.123	5.341	0.561
642.500	408.074	80.008	19.994	104.326	20.125	5.208	0.563
643.001	408.365	80.009	19.993	104.328	20.127	5.106	0.559
643.501	408.621	80.010	19.993	104.328	20.126	5.150	0.556
644.001	408.869	80.008	19.994	104.329	20.130	4.898	0.526
644.501	409.093	80.009	19.994	104.329	20.133	4.699	0.488
645.001	409.407	80.009	19.993	104.330	20.131	4.772	0.505
645.500	409.686	80.009	19.993	104.329	20.132	4.751	0.566
646.001	409.927	80.008	19.993	104.330	20.131	4.836	0.557
646.501	410.237	80.009	19.993	104.329	20.132	4.757	0.536
647.000	410.492	80.009	19.994	104.330	20.132	4.726	0.558
647.500	410.740	80.009	19.994	104.330	20.135	4.545	0.534
648.000	411.014	80.010	19.993	104.331	20.131	4.811	0.512
648.500	411.259	80.008	19.993	104.331	20.136	4.442	0.521
649.000	411.525	80.009	19.993	104.331	20.133	4.660	0.515
649.500	411.795	80.008	19.993	104.331	20.135	4.549	0.523
650.001	412.060	80.007	19.993	104.331	20.136	4.460	0.535
650.501	412.330	80.009	19.994	104.331	20.139	4.215	0.535
651.001	412.568	80.010	19.995	104.332	20.136	4.467	0.522
651.500	412.833	80.010	19.992	104.332	20.135	4.556	0.506
652.000	413.124	80.008	19.993	104.332	20.138	4.319	0.530
652.501	413.384	80.010	19.995	104.332	20.139	4.213	0.553
653.001	413.643	80.009	19.994	104.331	20.135	4.527	0.535
653.501	413.889	80.009	19.994	104.329	20.140	4.209	0.512
654.000	414.172	80.009	19.994	104.329	20.137	4.402	0.517
654.500	414.389	80.008	19.994	104.328	20.135	4.529	0.515
655.001	414.647	80.009	19.994	104.328	20.137	4.410	0.488
655.501	414.877	80.009	19.993	104.329	20.139	4.236	0.481
656.001	415.146	80.008	19.993	104.328	20.139	4.240	0.493
656.501	415.388	80.008	19.993	104.329	20.138	4.317	0.505
657.000	415.616	80.008	19.993	104.329	20.139	4.259	0.490
657.501	415.915	80.009	19.994	104.330	20.139	4.242	0.498
658.001	416.186	80.011	19.994	104.329	20.140	4.180	0.549
658.500	416.434	80.010	19.995	104.329	20.138	4.323	0.544
659.000	416.680	80.011	19.994	104.330	20.142	4.012	0.506
659.500	416.957	80.010	19.994	104.330	20.138	4.317	0.509
660.000	417.199	80.008	19.994	104.328	20.142	4.037	0.521
660.500	417.462	80.009	19.995	104.330	20.141	4.124	0.512
661.000	417.729	80.009	19.994	104.330	20.138	4.335	0.518
661.500	417.928	80.009	19.994	104.330	20.140	4.161	0.498
662.000	418.200	80.009	19.993	104.328	20.140	4.148	0.468
662.501	418.484	80.010	19.994	104.328	20.141	4.132	0.513
663.000	418.702	80.009	19.994	104.328	20.138	4.290	0.529
663.500	418.974	80.010	19.994	104.328	20.143	3.999	0.496
664.000	419.233	80.008	19.994	104.330	20.140	4.194	0.511
664.500	419.467	80.010	19.994	104.332	20.136	4.483	0.512
665.000	419.719	80.009	19.994	104.332	20.140	4.180	0.489
665.500	419.970	80.010	19.994	104.332	20.141	4.124	0.495
666.000	420.206	80.010	19.993	104.331	20.142	4.020	0.495
666.500	420.448	80.009	19.993	104.329	20.143	3.956	0.483
667.000	420.691	80.010	19.994	104.328	20.142	4.051	0.482
667.501	420.951	80.010	19.993	104.328	20.142	4.068	0.494
668.000	421.203	80.009	19.993	104.326	20.140	4.155	0.507
668.500	421.418	80.008	19.992	104.325	20.142	4.007	0.489
669.001	421.694	80.008	19.994	104.325	20.142	4.024	0.479
669.501	421.900	80.008	19.993	104.326	20.139	4.244	0.487
670.000	422.168	80.009	19.993	104.327	20.142	4.028	0.478
670.500	422.438	80.008	19.993	104.330	20.140	4.144	0.506
671.001	422.650	80.008	19.993	104.333	20.141	4.105	0.510
671.500	422.913	80.008	19.993	104.334	20.143	3.966	0.479
672.000	423.180	80.007	19.993	104.334	20.142	4.062	0.502
672.501	423.454	80.008	19.992	104.335	20.141	4.140	0.535
673.001	423.660	80.009	19.993	104.335	20.140	4.169	0.510
673.501	423.906	80.008	19.994	104.332	20.140	4.145	0.466
674.001	424.155	80.009	19.994	104.332	20.143	3.980	0.474
674.500	424.395	80.010	19.993	104.332	20.145	3.810	0.492
675.001	424.643	80.009	19.993	104.332	20.140	4.205	0.489
675.501	424.911	80.008	19.993	104.332	20.140	4.205	0.502
676.000	425.155	80.008	19.993	104.332	20.142	4.018	0.514
676.501	425.402	80.007	19.993	104.332	20.141	4.120	0.502
677.000	425.654	80.008	19.994	104.331	20.141	4.072	0.495
677.500	425.925	80.009	19.993	104.331	20.144	3.916	0.511
678.001	426.149	80.008	19.993	104.331	20.140	4.159	0.509
678.501	426.355	80.009	19.993	104.331	20.143	3.985	0.463
679.001	426.610	80.009	19.992	104.331	20.141	4.138	0.446
679.500	426.877	80.009	19.993	104.332	20.142	4.001	0.492
680.000	427.139	80.010	19.993	104.332	20.139	4.228	0.525
680.500	427.437	80.010	19.993	104.333	20.142	4.053	0.544
681.000	427.649	80.010	19.994	104.332	20.140	4.171	0.535
681.500	427.887	80.009	19.993	104.332	20.139	4.230	0.480
682.000	428.131	80.010	19.993	104.332	20.141	4.124	0.466
682.501	428.396	80.010	19.993	104.332	20.138	4.290	0.496
683.001	428.630	80.009	19.992	104.331	20.136	4.437	0.504
683.501	428.902	80.010	19.993	104.331	20.138	4.342	0.503
684.000	429.133	80.008	19.993	104.331	20.142	4.034	0.504
684.500	429.413	80.010	19.993	104.330	20.137	4.367	0.506
685.000	429.626	80.009	19.994	104.330	20.140	4.151	0.502
685.500	429.871	80.011	19.994	104.330	20.137	4.369	0.476
686.001	430.142	80.010	19.993	104.331	20.138	4.334	0.487
686.501	430.388	80.010	19.993	104.331	20.140	4.180	0.517
687.001	430.605	80.010	19.992	104.331	20.140	4.182	0.490
687.501	430.819	80.010	19.994	104.331	20.140	4.192	0.447
688.000	431.124	80.011	19.994	104.330	20.139	4.215	0.475
688.500	431.330	80.009	19.994	104.330	20.139	4.236	0.515
689.001	431.558	80.010	19.994	104.330	20.139	4.261	0.473
689.500	431.838	80.010	19.994	104.329	20.138	4.336	0.471
690.000	432.043	80.009	19.993	104.329	20.139	4.250	0.496
690.500	432.343	80.009	19.994	104.330	20.137	4.371	0.495
691.000	432.599	80.010	19.994	104.330	20.142	4.051	0.530
691.500	432.844	80.009	19.993	104.332	20.140	4.141	0.529
692.000	433.079	80.009	19.994	104.333	20.141	4.140	0.490
692.500	433.322	80.008	19.994	104.333	20.140	4.188	0.479
693.000	433.609	80.009	19.994	104.333	20.144	3.924	0.504
693.500	433.824	80.010	19.994	104.333	20.142	4.006	0.516
694.000	434.104	80.010	19.993	104.333	20.141	4.070	0.499
694.500	434.364	80.008	19.995	104.333	20.143	3.952	0.517
695.001	434.617	80.009	19.994	104.333	20.142	4.023	0.526
695.501	434.873	80.009	19.994	104.333	20.144	3.896	0.511
696.000	435.107	80.009	19.995	104.333	20.140	4.197	0.499
696.500	435.321	80.009	19.993	104.331	20.142	4.050	0.469
697.000	435.584	80.009	19.994	104.331	20.146	3.725	0.463
697.501	435.828	80.009	19.993	104.331	20.143	3.987	0.493
698.000	436.103	80.010	19.993	104.331	20.137	4.355	0.513
698.500	436.320	80.010	19.993	104.331	20.142	4.026	0.506
699.001	436.590	80.010	19.994	104.331	20.140	4.149	0.489
699.501	436.815	80.010	19.994	104.331	20.142	4.064	0.490
700.001	437.083	80.010	19.992	104.331	20.140	4.147	0.494
700.500	437.344	80.010	19.993	104.332	20.141	4.074	0.511
701.000	437.569	80.012	19.993	104.332	20.143	3.976	0.507
701.500	437.833	80.011	19.994	104.330	20.144	3.887	0.487
702.000	438.082	80.012	19.994	104.329	20.146	3.782	0.501
702.501	438.311	80.010	19.994	104.329	20.146	3.777	0.495
703.000	438.588	80.011	19.994	104.329	20.143	3.962	0.492
703.500	438.804	80.012	19.993	104.328	20.145	3.848	0.499
704.001	439.068	80.010	19.994	104.329	20.143	3.952	0.487
704.501	439.282	80.011	19.994	104.329	20.144	3.860	0.480
705.001	439.556	80.010	19.994	104.328	20.144	3.869	0.483
705.500	439.840	80.011	19.992	104.322	20.143	3.944	0.523
706.000	440.081	80.010	19.994	104.318	20.143	3.981	0.541
706.500	440.337	80.010	19.994	104.318	20.144	3.894	0.511
707.000	440.600	80.010	19.994	104.318	20.147	3.715	0.508
707.501	440.829	80.011	19.993	104.319	20.143	3.950	0.506
708.001	441.064	80.011	19.993	104.323	20.147	3.709	0.478
708.500	441.289	80.011	19.993	104.327	20.146	3.730	0.462
709.000	441.549	80.010	19.994	104.326	20.147	3.657	0.473
709.500	441.792	80.012	19.994	104.326	20.148	3.613	0.494
710.000	442.048	80.011	19.993	104.326	20.148	3.624	0.501
710.501	442.327	80.010	19.994	104.327	20.147	3.690	0.518
711.001	442.549	80.013	19.994	104.326	20.145	3.806	0.518
711.501	442.787	80.011	19.993	104.327	20.146	3.750	0.480
712.000	443.080	80.013	19.993	104.327	20.145	3.858	0.496
712.500	443.306	80.012	19.993	104.326	20.145	3.812	0.525
713.000	443.547	80.012	19.994	104.322	20.147	3.717	0.493
713.501	443.745	80.011	19.994	104.322	20.146	3.725	0.453
714.001	443.997	80.012	19.994	104.322	20.147	3.649	0.445
714.500	444.255	80.011	19.993	104.321	20.144	3.898	0.480
715.001	444.496	80.011	19.994	104.322	20.146	3.784	0.504
715.501	444.744	80.012	19.994	104.323	20.147	3.709	0.494
716.000	444.962	80.012	19.993	104.319	20.145	3.790	0.477
716.501	445.262	80.013	19.994	104.313	20.144	3.867	0.492
717.000	445.464	80.010	19.994	104.312	20.145	3.830	0.511
717.500	445.737	80.011	19.994	104.311	20.143	3.996	0.488
718.001	445.981	80.011	19.995	104.313	20.144	3.883	0.496
718.501	446.215	80.013	19.995	104.317	20.146	3.763	0.498
719.001	446.454	80.011	19.994	104.324	20.147	3.682	0.476
719.501	446.695	80.011	19.995	104.325	20.150	3.476	0.477
720.001	446.935	80.010	19.994	104.325	20.150	3.493	0.480
720.500	447.195	80.010	19.996	104.325	20.151	3.426	0.490
721.000	447.388	80.009	19.996	104.325	20.145	3.846	0.476
721.500	447.671	80.011	19.994	104.326	20.148	3.622	0.465
722.000	447.884	80.010	19.995	104.325	20.146	3.781	0.486
722.500	448.138	80.010	19.994	104.326	20.145	3.804	0.481
723.000	448.397	80.010	19.995	104.326	20.146	3.731	0.490
723.501	448.643	80.010	19.996	104.326	20.145	3.812	0.509
724.001	448.889	80.009	19.995	104.325	20.146	3.758	0.499
724.501	449.140	80.009	19.996	104.326	20.147	3.675	0.494
725.000	449.374	80.009	19.995	104.325	20.147	3.686	0.491
725.500	449.574	80.007	19.996	104.323	20.147	3.675	0.460
726.000	449.860	80.009	19.994	104.323	20.144	3.881	0.460
726.500	450.061	80.009	19.994	104.322	20.147	3.708	0.486
727.001	450.324	80.009	19.994	104.321	20.147	3.686	0.476
727.501	450.555	80.010	19.994	104.317	20.144	3.918	0.479
728.000	450.822	80.010	19.995	104.316	20.147	3.665	0.496
728.500	451.071	80.009	19.994	104.317	20.146	3.731	0.507
729.000	451.308	80.009	19.995	104.318	20.146	3.734	0.502
729.500	451.542	80.010	19.994	104.319	20.145	3.819	0.479
730.001	451.766	80.009	19.995	104.325	20.148	3.596	0.464
730.501	452.017	80.009	19.995	104.321	20.148	3.597	0.466
731.001	452.257	80.009	19.994	104.321	20.147	3.661	0.483
731.501	452.472	80.010	19.994	104.321	20.148	3.615	0.473
732.000	452.744	80.009	19.993	104.321	20.148	3.641	0.471
732.500	452.992	80.010	19.993	104.322	20.150	3.483	0.504
733.000	453.247	80.009	19.993	104.329	20.151	3.414	0.512
733.500	453.499	80.009	19.993	104.329	20.148	3.626	0.505
734.000	453.722	80.009	19.993	104.327	20.147	3.665	0.491
734.501	453.967	80.008	19.994	104.327	20.146	3.742	0.471
735.000	454.222	80.009	19.994	104.327	20.148	3.599	0.484
735.500	454.465	80.010	19.993	104.326	20.148	3.580	0.499
736.001	454.704	80.009	19.993	104.326	20.153	3.260	0.490
736.500	454.917	80.010	19.995	104.329	20.149	3.555	0.467
737.000	455.166	80.008	19.994	104.330	20.152	3.323	0.457
737.500	455.463	80.010	19.994	104.331	20.148	3.636	0.503
738.000	455.687	80.008	19.993	104.333	20.150	3.485	0.533
738.500	455.926	80.010	19.995	104.332	20.149	3.513	0.492
739.000	456.121	80.010	19.994	104.331	20.152	3.304	0.448
739.500	456.424	80.009	19.993	104.331	20.150	3.472	0.466
740.000	456.665	80.010	19.994	104.329	20.148	3.594	0.521
740.500	456.860	80.010	19.994	104.328	20.147	3.704	0.490
741.000	457.144	80.009	19.993	104.328	20.153	3.279	0.458
741.500	457.349	80.009	19.993	104.328	20.155	3.154	0.484
742.000	457.650	80.008	19.994	104.326	20.155	3.127	0.497
742.500	457.841	80.010	19.993	104.321	20.149	3.563	0.499
743.001	458.065	80.009	19.993	104.317	20.147	3.709	0.453
743.501	458.395	80.009	19.993	104.316	20.159	2.859	0.484
744.000	458.612	80.009	19.993	104.316	20.148	3.582	0.551
744.500	458.832	80.008	19.994	104.317	20.139	4.275	0.492
745.000	459.063	80.009	19.994	104.321	20.142	4.060	0.444
745.501	459.335	80.009	19.993	104.324	20.158	2.946	0.476
746.000	459.565	80.008	19.993	104.323	20.154	3.165	0.503
746.500	459.842	80.008	19.993	104.320	20.139	4.243	0.505
747.000	460.078	80.010	19.994	104.315	20.144	3.929	0.510
747.501	460.303	80.010	19.993	104.316	20.149	3.572	0.487
748.001	460.641	80.008	19.993	104.316	20.151	3.379	0.512
748.500	460.846	80.010	19.993	104.318	20.150	3.441	0.552
749.000	461.050	80.009	19.993	104.322	20.149	3.516	0.476
749.501	461.317	80.010	19.993	104.328	20.147	3.657	0.440
750.001	461.563	80.009	19.994	104.328	20.151	3.403	0.492
750.500	461.791	80.008	19.993	104.330	20.152	3.329	0.493
751.000	462.077	80.010	19.993	104.330	20.148	3.611	0.494
751.500	462.309	80.010	19.993	104.329	20.151	3.399	0.516
752.000	462.567	80.009	19.993	104.328	20.150	3.447	0.504
752.500	462.728	80.009	19.993	104.329	20.149	3.517	0.455
753.000	463.107	80.008	19.995	104.329	20.149	3.569	0.479
753.500	463.189	80.008	19.994	104.327	20.149	3.520	0.500
754.001	463.646	80.009	19.992	104.326	20.150	3.503	0.500
754.501	463.752	80.009	19.994	104.327	20.152	3.316	0.551
755.001	463.995	80.009	19.994	104.327	20.152	3.353	0.456
755.500	464.560	80.008	19.994	104.327	20.148	3.611	0.579
756.000	464.373	80.007	19.993	104.329	20.150	3.462	0.593
756.501	464.867	80.009	19.992	104.329	20.152	3.349	0.342
757.001	464.845	80.008	19.993	104.323	20.154	3.219	0.389
757.500	465.580	80.010	19.992	104.321	20.150	3.457	0.592
758.000	465.195	80.007	19.994	104.320	20.148	3.626	0.531
758.501	465.369	80.009	19.992	104.318	20.150	3.474	0.069
759.001	465.889	80.009	19.994	104.319	20.152	3.341	0.241
759.500	466.650	80.009	19.994	104.326	20.152	3.316	0.987
760.000	466.417	80.008	19.993	104.328	20.148	3.623	0.905
760.500	466.258	80.008	19.995	104.329	20.150	3.474	0.068
761.000	466.664	80.008	19.993	104.331	20.149	3.547	-0.073
761.501	467.158	80.009	19.993	104.331	20.150	3.468	0.573
762.001	467.648	80.009	19.993	104.331	20.151	3.412	0.942
762.501	467.880	80.010	19.993	104.331	20.151	3.406	0.853
763.000	468.022	80.010	19.994	104.329	20.151	3.416	0.548
763.500	468.167	80.010	19.993	104.330	20.150	3.466	0.331
764.001	468.408	80.009	19.992	104.331	20.150	3.478	0.336
764.500	468.816	80.009	19.993	104.330	20.151	3.437	0.517
765.000	469.007	80.011	19.993	104.328	20.147	3.709	0.624
765.500	469.268	80.009	19.992	104.329	20.151	3.380	0.526
766.001	469.533	80.011	19.992	104.329	20.151	3.381	0.489
766.500	469.793	80.010	19.993	104.328	20.152	3.358	0.525
767.000	470.030	80.011	19.992	104.329	20.152	3.353	0.511
767.501	470.257	80.010	19.993	104.330	20.148	3.648	0.481
768.001	470.558	80.012	19.994	104.330	20.149	3.518	0.496
768.501	470.804	80.011	19.994	104.329	20.151	3.426	0.537
769.000	471.155	80.012	19.992	104.329	20.152	3.333	0.572
769.500	471.299	80.010	19.993	104.329	20.151	3.378	0.546
770.000	471.598	80.011	19.992	104.328	20.152	3.318	0.469
770.500	471.835	80.010	19.993	104.327	20.151	3.436	0.490
771.000	472.071	80.011	19.992	104.327	20.148	3.644	0.505
771.501	472.342	80.012	19.993	104.326	20.148	3.619	0.490
772.001	472.565	80.010	19.993	104.327	20.152	3.312	0.500
772.501	472.896	80.011	19.993	104.327	20.149	3.569	0.524
773.000	473.131	80.012	19.992	104.326	20.149	3.572	0.560
773.500	473.415	80.011	19.993	104.324	20.149	3.567	0.543
774.000	473.671	80.011	19.994	104.324	20.150	3.484	0.529
774.500	473.912	80.011	19.993	104.324	20.149	3.569	0.518
775.000	474.251	80.012	19.993	104.324	20.152	3.345	0.538
775.500	474.495	80.010	19.993	104.326	20.152	3.310	0.582
776.000	474.742	80.011	19.992	104.328	20.152	3.304	0.537
776.501	474.979	80.011	19.993	104.329	20.150	3.457	0.487
777.001	475.245	80.010	19.993	104.329	20.152	3.347	0.494
777.501	475.539	80.011	19.995	104.329	20.148	3.592	0.532
778.001	475.776	80.012	19.995	104.330	20.152	3.354	0.545
778.501	476.030	80.010	19.994	104.330	20.151	3.412	0.511
779.001	476.330	80.010	19.993	104.330	20.149	3.518	0.523
779.501	476.595	80.011	19.993	104.331	20.152	3.337	0.560
780.001	476.807	80.009	19.994	104.331	20.152	3.318	0.521
780.500	477.128	80.010	19.995	104.330	20.150	3.482	0.505
781.000	477.372	80.010	19.994	104.330	20.148	3.580	0.549
781.501	477.629	80.010	19.995	104.330	20.151	3.432	0.532
782.001	477.926	80.009	19.993	104.329	20.152	3.326	0.527
782.501	478.145	80.011	19.994	104.328	20.152	3.366	0.535
783.000	478.427	80.010	19.994	104.327	20.151	3.395	0.509
783.500	478.689	80.010	19.995	104.327	20.153	3.241	0.523
784.000	478.927	80.011	19.994	104.328	20.150	3.462	0.522
784.500	479.207	80.011	19.994	104.329	20.153	3.248	0.509
785.000	479.480	80.010	19.995	104.330	20.153	3.273	0.535
785.500	479.784	80.010	19.994	104.330	20.151	3.425	0.565
786.000	480.013	80.009	19.994	104.329	20.153	3.273	0.555
786.500	480.312	80.010	19.994	104.329	20.153	3.242	0.530
787.000	480.494	80.010	19.994	104.327	20.153	3.231	0.505
787.501	480.816	80.010	19.994	104.326	20.151	3.410	0.493
788.001	481.060	80.010	19.995	104.326	20.153	3.231	0.535
788.501	481.336	80.011	19.995	104.327	20.153	3.290	0.543
789.000	481.609	80.011	19.995	104.326	20.152	3.348	0.534
789.500	481.871	80.011	19.995	104.326	20.153	3.237	0.542
790.000	482.120	80.011	19.996	104.328	20.152	3.308	0.523
790.500	482.367	80.011	19.994	104.326	20.150	3.459	0.503
791.000	482.676	80.012	19.994	104.326	20.153	3.279	0.526
791.501	482.938	80.013	19.993	104.326	20.152	3.362	0.564
792.001	483.193	80.012	19.994	104.326	20.151	3.399	0.544
792.500	483.493	80.013	19.994	104.326	20.154	3.183	0.536
793.000	483.749	80.012	19.994	104.329	20.153	3.248	0.555
793.500	484.031	80.012	19.994	104.328	20.154	3.175	0.547
794.001	484.301	80.013	19.993	104.328	20.154	3.169	0.545
794.500	484.568	80.013	19.992	104.326	20.151	3.389	0.544
795.000	484.828	80.012	19.994	104.324	20.150	3.439	0.531
795.500	485.075	80.013	19.994	104.321	20.156	3.065	0.517
796.000	485.321	80.013	19.993	104.321	20.155	3.111	0.501
796.500	485.640	80.013	19.992	104.317	20.156	3.029	0.529
797.000	485.904	80.012	19.995	104.314	20.154	3.164	0.574
797.500	486.169	80.012	19.994	104.315	20.155	3.135	0.556
798.000	486.455	80.012	19.994	104.313	20.154	3.221	0.540
798.500	486.704	80.013	19.994	104.310	20.152	3.333	0.543
799.000	486.971	80.012	19.993	104.315	20.155	3.144	0.525
799.500	487.257	80.013	19.993	104.318	20.153	3.266	0.535
800.000	487.480	80.011	19.993	104.319	20.153	3.254	0.531
800.500	487.802	80.010	19.995	104.322	20.153	3.293	0.527
801.000	488.034	80.011	19.994	104.325	20.155	3.094	0.550
801.500	488.337	80.012	19.993	104.325	20.155	3.144	0.545
802.000	488.582	80.010	19.993	104.325	20.151	3.397	0.542
802.500	488.870	80.012	19.994	104.327	20.154	3.204	0.540
803.000	489.137	80.011	19.993	104.327	20.151	3.380	0.544
803.500	489.396	80.010	19.992	104.328	20.150	3.470	0.541
804.000	489.650	80.009	19.993	104.328	20.152	3.360	0.520
804.500	489.927	80.009	19.995	104.329	20.150	3.462	0.522
805.000	490.213	80.011	19.994	104.327	20.153	3.273	0.547
805.500	490.466	80.009	19.993	104.327	20.149	3.547	0.551
806.000	490.736	80.009	19.993	104.327	20.151	3.410	0.531
806.500	491.006	80.009	19.995	104.328	20.152	3.347	0.532
807.000	491.276	80.009	19.994	104.328	20.150	3.478	0.540
807.501	491.589	80.009	19.994	104.331	20.151	3.376	0.562
808.001	491.799	80.009	19.995	104.332	20.151	3.430	0.553
808.501	492.088	80.009	19.995	104.332	20.152	3.349	0.511
809.000	492.382	80.009	19.994	104.332	20.151	3.414	0.541
809.500	492.678	80.009	19.995	104.332	20.151	3.399	0.586
810.001	492.922	80.008	19.995	104.331	20.153	3.254	0.565
810.500	493.185	80.009	19.995	104.331	20.152	3.308	0.524
811.000	493.465	80.009	19.993	104.330	20.152	3.308	0.525
811.500	493.748	80.009	19.994	104.330	20.150	3.449	0.553
812.000	494.006	80.008	19.994	104.330	20.153	3.296	0.552
812.500	494.296	80.009	19.994	104.330	20.152	3.337	0.545
813.000	494.546	80.007	19.995	104.330	20.152	3.354	0.544
813.500	494.822	80.008	19.994	104.330	20.153	3.231	0.533
814.000	495.129	80.008	19.994	104.330	20.151	3.393	0.554
814.501	495.355	80.009	19.995	104.329	20.153	3.285	0.558
815.001	495.661	80.007	19.995	104.328	20.154	3.200	0.533
815.501	495.910	80.008	19.995	104.326	20.152	3.318	0.544
816.001	496.177	80.008	19.994	104.323	20.155	3.137	0.535
816.501	496.471	80.008	19.994	104.321	20.151	3.399	0.538
817.000	496.722	80.008	19.995	104.322	20.155	3.123	0.553
817.500	496.978	80.008	19.994	104.322	20.153	3.268	0.526
818.001	497.265	80.007	19.994	104.324	20.150	3.503	0.525
818.501	497.553	80.008	19.995	104.326	20.153	3.243	0.559
819.001	497.779	80.007	19.996	104.328	20.152	3.322	0.545
819.500	498.055	80.007	19.995	104.328	20.154	3.217	0.508
820.000	498.346	80.007	19.995	104.330	20.150	3.503	0.535
820.500	498.616	80.009	19.995	104.331	20.152	3.321	0.564
821.000	498.861	80.007	19.995	104.331	20.150	3.485	0.538
821.500	499.163	80.009	19.995	104.328	20.150	3.501	0.531
822.000	499.407	80.008	19.994	104.327	20.150	3.441	0.547
822.500	499.664	80.008	19.994	104.325	20.152	3.354	0.524
823.000	499.947	80.009	19.995	104.323	20.152	3.320	0.520
823.500	500.161	80.009	19.994	104.321	20.149	3.524	0.518
824.000	500.439	80.008	19.994	104.325	20.153	3.266	0.494
824.501	500.745	80.008	19.993	104.325	20.153	3.269	0.538
825.001	501.033	80.009	19.993	104.326	20.154	3.213	0.589
825.501	501.283	80.009	19.993	104.329	20.152	3.339	0.566
826.000	501.555	80.010	19.994	104.332	20.152	3.314	0.530
826.500	501.765	80.010	19.992	104.332	20.152	3.364	0.502
827.001	502.075	80.009	19.993	104.333	20.150	3.491	0.501
827.501	502.314	80.009	19.993	104.333	20.151	3.379	0.534
828.001	502.599	80.010	19.993	104.332	20.152	3.312	0.537
828.500	502.872	80.009	19.993	104.330	20.151	3.397	0.541
829.000	503.141	80.009	19.993	104.329	20.150	3.441	0.550
829.500	503.399	80.010	19.994	104.327	20.150	3.447	0.535
830.000	503.674	80.009	19.993	104.325	20.153	3.281	0.530
830.500	503.908	80.010	19.992	104.324	20.153	3.277	0.521
831.000	504.201	80.009	19.994	104.324	20.152	3.341	0.519
831.501	504.435	80.009	19.993	104.323	20.151	3.425	0.527
832.001	504.721	80.009	19.993	104.322	20.152	3.364	0.523
832.500	504.983	80.010	19.995	104.321	20.151	3.412	0.534
833.000	505.240	80.009	19.993	104.321	20.151	3.408	0.533
833.501	505.508	80.009	19.993	104.322	20.149	3.543	0.522
834.000	505.771	80.009	19.992	104.322	20.152	3.343	0.528
834.500	506.014	80.009	19.992	104.322	20.153	3.287	0.519
835.000	506.297	80.009	19.993	104.325	20.154	3.190	0.516
835.500	506.557	80.009	19.993	104.324	20.152	3.313	0.534
836.001	506.814	80.009	19.994	104.323	20.152	3.339	0.530
836.501	507.092	80.010	19.994	104.320	20.150	3.443	0.526
837.001	507.324	80.008	19.992	104.319	20.150	3.470	0.522
837.500	507.602	80.009	19.995	104.317	20.152	3.343	0.510
838.000	507.874	80.010	19.994	104.319	20.152	3.358	0.530
838.500	508.135	80.011	19.994	104.320	20.152	3.347	0.541
839.000	508.430	80.009	19.994	104.324	20.155	3.138	0.545
839.501	508.673	80.009	19.995	104.326	20.155	3.150	0.547
840.001	508.968	80.009	19.995	104.326	20.153	3.269	0.538
840.501	509.209	80.011	19.994	104.321	20.153	3.261	0.537
841.000	509.483	80.010	19.994	104.319	20.150	3.447	0.525
841.500	509.720	80.009	19.995	104.317	20.153	3.254	0.513
842.000	509.967	80.009	19.994	104.315	20.154	3.204	0.498
842.500	510.280	80.008	19.993	104.316	20.155	3.113	0.522
843.000	510.509	80.008	19.992	104.319	20.156	3.057	0.551
843.501	510.744	80.009	19.993	104.320	20.155	3.123	0.503
844.001	511.034	80.011	19.994	104.322	20.153	3.239	0.494
844.500	511.309	80.010	19.993	104.323	20.153	3.271	0.545
845.000	511.520	80.010	19.994	104.323	20.151	3.374	0.526
845.500	511.777	80.010	19.991	104.321	20.153	3.243	0.477
846.000	512.032	80.010	19.993	104.317	20.152	3.343	0.490
846.500	512.288	80.010	19.995	104.312	20.152	3.329	0.512
847.001	512.568	80.010	19.993	104.313	20.152	3.347	0.524
847.500	512.805	80.010	19.993	104.314	20.153	3.246	0.527
848.000	513.051	80.009	19.994	104.318	20.152	3.300	0.500
848.500	513.360	80.012	19.995	104.322	20.154	3.186	0.519
849.000	513.623	80.009	19.994	104.325	20.154	3.184	0.564
849.501	513.870	80.011	19.994	104.322	20.155	3.134	0.541
850.001	514.115	80.011	19.993	104.317	20.156	3.044	0.501
850.501	514.427	80.011	19.994	104.315	20.152	3.339	0.524
851.001	514.693	80.011	19.994	104.315	20.152	3.351	0.567
851.501	514.970	80.012	19.994	104.316	20.154	3.183	0.560
852.001	515.238	80.012	19.994	104.319	20.155	3.152	0.544
852.500	515.494	80.012	19.995	104.326	20.153	3.233	0.534
853.000	515.751	80.013	19.994	104.328	20.155	3.092	0.518
853.500	516.047	80.012	19.994	104.327	20.151	3.426	0.533
854.000	516.303	80.011	19.994	104.327	20.154	3.223	0.552
854.500	516.573	80.012	19.994	104.326	20.151	3.424	0.539
855.000	516.846	80.012	19.993	104.325	20.150	3.501	0.534
855.500	517.098	80.011	19.993	104.325	20.149	3.553	0.534
856.000	517.390	80.011	19.994	104.325	20.151	3.433	0.535
856.500	517.687	80.011	19.994	104.327	20.152	3.308	0.567
857.000	517.898	80.010	19.995	104.327	20.149	3.578	0.549
857.500	518.234	80.012	19.992	104.328	20.150	3.499	0.527
858.000	518.455	80.010	19.993	104.328	20.148	3.599	0.551
858.500	518.751	80.011	19.995	104.328	20.147	3.659	0.537
859.000	519.035	80.010	19.995	104.326	20.150	3.449	0.549
859.500	519.312	80.012	19.993	104.320	20.149	3.578	0.571
860.000	519.598	80.011	19.993	104.320	20.150	3.443	0.562
860.500	519.861	80.011	19.993	104.320	20.149	3.559	0.556
861.000	520.158	80.010	19.992	104.322	20.152	3.339	0.555
861.500	520.438	80.011	19.992	104.324	20.151	3.370	0.568
862.000	520.749	80.013	19.993	104.331	20.150	3.470	0.584
862.500	521.048	80.010	19.994	104.331	20.152	3.333	0.601
863.000	521.292	80.010	19.994	104.330	20.149	3.518	0.576
863.500	521.617	80.010	19.993	104.329	20.149	3.569	0.556
864.000	521.882	80.010	19.992	104.329	20.152	3.304	0.579
864.500	522.188	80.012	19.992	104.327	20.152	3.337	0.581
865.000	522.478	80.009	19.993	104.323	20.152	3.323	0.584
865.500	522.779	80.010	19.993	104.322	20.149	3.538	0.594
866.000	523.060	80.011	19.993	104.321	20.151	3.416	0.586
866.500	523.348	80.012	19.992	104.322	20.149	3.560	0.575
867.000	523.649	80.011	19.993	104.321	20.149	3.535	0.579
867.500	523.927	80.011	19.993	104.325	20.148	3.616	0.584
868.001	524.218	80.010	19.993	104.327	20.147	3.699	0.574
868.501	524.484	80.012	19.993	104.326	20.149	3.572	0.563
869.000	524.798	80.010	19.994	104.325	20.145	3.840	0.569
869.500	525.079	80.010	19.993	104.328	20.147	3.676	0.588
870.000	525.386	80.009	19.994	104.330	20.148	3.588	0.591
870.500	525.689	80.012	19.993	104.330	20.145	3.798	0.599
871.001	525.951	80.012	19.994	104.331	20.148	3.628	0.588
871.501	526.256	80.010	19.993	104.330	20.150	3.460	0.566
872.000	526.548	80.011	19.993	104.329	20.149	3.539	0.582
872.500	526.849	80.011	19.993	104.329	20.148	3.601	0.595
873.000	527.132	80.012	19.992	104.327	20.149	3.566	0.589
873.500	527.423	80.012	19.993	104.329	20.153	3.284	0.579
874.000	527.716	80.012	19.994	104.330	20.149	3.528	0.579
874.500	528.010	80.011	19.993	104.329	20.150	3.449	0.585
875.000	528.336	80.011	19.993	104.327	20.147	3.666	0.603
875.500	528.627	80.011	19.994	104.325	20.151	3.397	0.619
876.001	528.919	80.012	19.993	104.325	20.153	3.296	0.601
876.500	529.178	80.012	19.993	104.324	20.151	3.397	0.567
877.000	529.522	80.013	19.993	104.320	20.150	3.479	0.576
877.501	529.801	80.012	19.993	104.318	20.151	3.400	0.612
878.000	530.079	80.012	19.994	104.314	20.150	3.442	0.590
878.500	530.357	80.012	19.994	104.308	20.149	3.525	0.557
879.001	530.640	80.011	19.994	104.308	20.147	3.670	0.559
879.501	530.916	80.012	19.994	104.312	20.152	3.303	0.560
880.000	531.204	80.011	19.993	104.315	20.151	3.375	0.561
880.500	531.514	80.012	19.993	104.318	20.150	3.479	0.581
881.000	531.789	80.011	19.994	104.321	20.150	3.471	0.592
881.501	532.093	80.011	19.994	104.323	20.151	3.429	0.582
882.001	532.361	80.011	19.993	104.321	20.149	3.552	0.575
882.500	532.624	80.009	19.994	104.318	20.151	3.377	0.551
883.000	532.960	80.009	19.994	104.316	20.152	3.331	0.565
883.501	533.205	80.009	19.995	104.319	20.151	3.412	0.590
884.001	533.499	80.009	19.995	104.315	20.153	3.236	0.560
884.500	533.770	80.010	19.993	104.311	20.151	3.402	0.552
885.000	534.058	80.010	19.994	104.312	20.149	3.535	0.562
885.500	534.365	80.008	19.993	104.316	20.149	3.519	0.577
886.001	534.655	80.010	19.994	104.315	20.150	3.438	0.597
886.501	534.921	80.008	19.994	104.318	20.150	3.448	0.577
887.000	535.231	80.010	19.994	104.321	20.151	3.400	0.566
887.500	535.485	80.009	19.994	104.319	20.152	3.327	0.570
888.001	535.795	80.008	19.994	104.314	20.153	3.279	0.563
888.501	536.083	80.008	19.994	104.308	20.151	3.383	0.581
889.001	536.348	80.008	19.993	104.304	20.149	3.514	0.576
889.501	536.616	80.009	19.994	104.301	20.151	3.402	0.543
890.000	536.897	80.009	19.993	104.301	20.149	3.544	0.541
890.500	537.174	80.008	19.994	104.302	20.148	3.635	0.554
891.000	537.398	80.009	19.994	104.302	20.148	3.643	0.529
891.500	537.713	80.008	19.993	104.301	20.150	3.485	0.520
892.000	537.987	80.011	19.993	104.302	20.150	3.479	0.564
892.500	538.275	80.009	19.993	104.305	20.149	3.533	0.575
893.000	538.542	80.009	19.993	104.309	20.147	3.662	0.558
893.500	538.812	80.008	19.993	104.309	20.153	3.294	0.546
894.000	539.059	80.008	19.994	104.309	20.151	3.427	0.527
894.500	539.356	80.009	19.995	104.307	20.151	3.427	0.531
895.000	539.635	80.010	19.993	104.303	20.151	3.411	0.560
895.500	539.874	80.009	19.994	104.297	20.152	3.346	0.547
896.001	540.117	80.010	19.994	104.295	20.152	3.353	0.500
896.501	540.430	80.008	19.993	104.295	20.153	3.284	0.519
897.000	540.664	80.009	19.992	104.294	20.153	3.288	0.551
897.500	540.939	80.011	19.997	104.297	20.149	3.512	0.528
898.000	541.172	80.012	19.995	104.303	20.152	3.326	0.509
898.500	541.454	80.009	19.996	104.309	20.153	3.286	0.512
899.001	541.701	80.009	19.995	104.310	20.151	3.400	0.522
899.501	541.973	80.010	19.994	104.310	20.150	3.446	0.524
900.000	542.174	80.009	19.994	104.309	20.151	3.427	0.496
900.500	542.475	80.009	19.994	104.303	20.153	3.244	0.488
901.000	542.742	80.011	19.994	104.298	20.149	3.523	0.535
901.500	542.983	80.010	19.995	104.298	20.147	3.656	0.538
902.000	543.226	80.009	19.996	104.298	20.148	3.624	0.496
902.501	543.491	80.009	19.994	104.297	20.150	3.508	0.496
903.000	543.736	80.009	19.995	104.301	20.149	3.521	0.509
903.500	543.982	80.009	19.996	104.304	20.151	3.404	0.500
904.000	544.223	80.008	19.995	104.309	20.152	3.317	0.489
904.500	544.475	80.009	19.995	104.309	20.151	3.434	0.490
905.000	544.709	80.009	19.995	104.308	20.151	3.415	0.489
905.500	544.973	80.010	19.994	104.305	20.152	3.336	0.492
906.000	545.238	80.009	19.994	104.302	20.153	3.253	0.513
906.500	545.460	80.009	19.994	104.297	20.149	3.567	0.508
907.000	545.688	80.009	19.995	104.296	20.153	3.238	0.469
907.500	545.947	80.009	19.995	104.297	20.149	3.531	0.469
908.000	546.230	80.009	19.995	104.297	20.149	3.513	0.514
908.500	546.456	80.010	19.995	104.297	20.147	3.662	0.525
909.000	546.682	80.008	19.995	104.296	20.148	3.596	0.481
909.501	546.968	80.009	19.994	104.298	20.149	3.519	0.482
910.001	547.193	80.009	19.995	104.298	20.151	3.433	0.511
910.501	547.471	80.009	19.994	104.297	20.148	3.624	0.507
911.000	547.684	80.009	19.995	104.296	20.149	3.554	0.497
911.500	547.941	80.008	19.996	104.300	20.146	3.724	0.481
912.000	548.217	80.008	19.995	104.299	20.152	3.357	0.502
912.500	548.418	80.008	19.995	104.301	20.149	3.513	0.505
913.001	548.651	80.009	19.995	104.302	20.150	3.496	0.455
913.501	548.910	80.008	19.995	104.301	20.153	3.296	0.463
914.001	549.122	80.009	19.995	104.303	20.151	3.423	0.481
914.501	549.357	80.008	19.994	104.302	20.145	3.844	0.459
915.000	549.597	80.009	19.995	104.297	20.145	3.797	0.461
915.500	549.858	80.008	19.995	104.297	20.145	3.797	0.488
916.001	550.103	80.008	19.995	104.296	20.148	3.631	0.504
916.501	550.322	80.009	19.994	104.292	20.149	3.537	0.485
917.001	550.602	80.008	19.995	104.291	20.147	3.708	0.481
917.501	550.812	80.009	19.995	104.292	20.148	3.610	0.495
918.000	551.080	80.009	19.993	104.296	20.149	3.576	0.484
918.500	551.269	80.009	19.995	104.297	20.148	3.605	0.467
919.000	551.523	80.007	19.994	104.297	20.148	3.638	0.450
919.501	551.772	80.009	19.996	104.297	20.147	3.676	0.473
920.001	551.998	80.008	19.995	104.297	20.148	3.634	0.488
920.501	552.228	80.008	19.996	104.298	20.148	3.591	0.465
921.001	552.487	80.009	19.995	104.302	20.146	3.765	0.473
921.500	552.723	80.009	19.994	104.304	20.152	3.338	0.493
922.000	552.916	80.009	19.994	104.309	20.152	3.321	0.462
922.501	553.164	80.009	19.994	104.308	20.150	3.483	0.435
923.001	553.409	80.009	19.994	104.302	20.149	3.575	0.467
923.500	553.654	80.008	19.994	104.297	20.151	3.415	0.491
924.000	553.885	80.009	19.993	104.297	20.149	3.527	0.483
924.500	554.133	80.010	19.993	104.297	20.150	3.439	0.477
925.000	554.380	80.009	19.994	104.302	20.147	3.695	0.487
925.500	554.629	80.009	19.994	104.306	20.148	3.609	0.496
926.000	554.846	80.009	19.994	104.307	20.149	3.545	0.481
926.500	555.076	80.009	19.993	104.307	20.147	3.659	0.457
927.000	555.346	80.010	19.994	104.302	20.149	3.537	0.474
927.500	555.594	80.009	19.993	104.301	20.148	3.589	0.509
928.001	555.821	80.010	19.994	104.303	20.148	3.622	0.496
928.501	556.048	80.009	19.992	104.308	20.148	3.610	0.465
929.000	556.277	80.008	19.994	104.313	20.148	3.579	0.455
929.500	556.548	80.011	19.994	104.318	20.150	3.439	0.478
930.001	556.781	80.012	19.995	104.319	20.149	3.535	0.502
930.500	557.010	80.011	19.993	104.320	20.147	3.676	0.483
931.000	557.290	80.010	19.993	104.321	20.147	3.694	0.486
931.501	557.533	80.010	19.995	104.319	20.148	3.596	0.516
932.000	557.789	80.009	19.993	104.314	20.146	3.744	0.511
932.500	558.033	80.011	19.994	104.311	20.147	3.711	0.500
933.000	558.280	80.010	19.993	104.305	20.145	3.827	0.495
933.500	558.525	80.010	19.993	104.299	20.145	3.802	0.491
934.000	558.772	80.011	19.993	104.298	20.148	3.612	0.492
934.500	559.028	80.011	19.994	104.306	20.147	3.693	0.498
935.000	559.235	80.012	19.994	104.306	20.147	3.657	0.483
935.500	559.513	80.010	19.993	104.309	20.147	3.709	0.473
936.000	559.815	80.011	19.993	104.315	20.146	3.757	0.533
936.500	560.038	80.010	19.992	104.314	20.148	3.608	0.553
937.000	560.303	80.010	19.994	104.312	20.145	3.820	0.506
937.500	560.526	80.011	19.994	104.314	20.145	3.826	0.488
938.000	560.813	80.010	19.993	104.313	20.143	3.942	0.499
938.500	561.086	80.011	19.993	104.311	20.148	3.627	0.535
939.001	561.301	80.011	19.994	104.308	20.143	3.950	0.524
939.501	561.584	80.011	19.993	104.305	20.142	4.019	0.493
940.001	561.859	80.011	19.993	104.305	20.147	3.661	0.528
940.500	562.070	80.010	19.994	104.309	20.146	3.761	0.522
941.000	562.363	80.010	19.993	104.312	20.145	3.842	0.495
941.500	562.608	80.009	19.995	104.318	20.147	3.711	0.521
942.000	562.876	80.011	19.993	104.323	20.146	3.745	0.526
942.501	563.138	80.009	19.994	104.327	20.148	3.630	0.522
943.000	563.397	80.009	19.994	104.325	20.148	3.628	0.525
943.500	563.622	80.010	19.993	104.323	20.146	3.782	0.502
944.000	563.904	80.009	19.994	104.321	20.147	3.672	0.495
944.501	564.147	80.009	19.994	104.318	20.148	3.628	0.516
945.000	564.396	80.009	19.995	104.314	20.147	3.698	0.508
945.500	564.633	80.009	19.993	104.308	20.146	3.769	0.490
946.000	564.920	80.011	19.993	104.308	20.146	3.723	0.505
946.501	565.169	80.010	19.994	104.309	20.146	3.744	0.530
947.001	565.430	80.010	19.993	104.306	20.142	4.024	0.523
947.501	565.737	80.009	19.993	104.305	20.147	3.680	0.539
948.001	566.008	80.010	19.994	104.306	20.148	3.626	0.573
948.501	566.247	80.010	19.993	104.303	20.146	3.723	0.544
949.001	566.510	80.010	19.994	104.297	20.147	3.661	0.506
949.501	566.763	80.010	19.994	104.303	20.148	3.618	0.509
950.001	567.013	80.010	19.994	104.309	20.145	3.832	0.510
950.501	567.300	80.009	19.994	104.316	20.147	3.714	0.521
951.000	567.537	80.010	19.993	104.319	20.146	3.726	0.531
951.500	567.795	80.011	19.993	104.323	20.146	3.780	0.510
952.000	568.076	80.011	19.993	104.320	20.145	3.800	0.517
952.500	568.326	80.010	19.993	104.314	20.148	3.613	0.535
953.000	568.591	80.010	19.993	104.310	20.146	3.776	0.523
953.500	568.904	80.010	19.993	104.307	20.149	3.558	0.546
954.001	569.123	80.012	19.993	104.310	20.146	3.772	0.555
954.500	569.374	80.010	19.993	104.314	20.144	3.880	0.501
955.000	569.678	80.011	19.993	104.319	20.145	3.816	0.513
955.501	569.930	80.010	19.993	104.321	20.145	3.814	0.556
956.001	570.229	80.011	19.992	104.326	20.146	3.747	0.554
956.500	570.484	80.012	19.992	104.324	20.148	3.627	0.552
957.000	570.742	80.010	19.992	104.321	20.146	3.743	0.533
957.500	571.009	80.011	19.993	104.321	20.146	3.751	0.519
958.001	571.238	80.011	19.992	104.324	20.147	3.656	0.511
958.501	571.540	80.012	19.993	104.324	20.144	3.859	0.513
959.001	571.785	80.012	19.993	104.325	20.145	3.797	0.538
959.501	572.041	80.012	19.993	104.324	20.146	3.737	0.524
960.001	572.322	80.011	19.993	104.319	20.146	3.782	0.520
960.501	572.597	80.013	19.992	104.312	20.146	3.763	0.547
961.001	572.884	80.012	19.993	104.308	20.143	3.935	0.559
961.501	573.185	80.011	19.993	104.308	20.142	4.020	0.575
962.001	573.421	80.013	19.993	104.311	20.147	3.661	0.562
962.501	573.723	80.013	19.993	104.318	20.146	3.730	0.537
963.001	573.989	80.013	19.992	104.321	20.145	3.792	0.553
963.500	574.258	80.012	19.992	104.321	20.143	3.961	0.552
964.000	574.541	80.012	19.993	104.316	20.143	3.933	0.543
964.500	574.800	80.011	19.992	104.312	20.146	3.751	0.547
965.000	575.072	80.011	19.993	104.304	20.144	3.869	0.536
965.500	575.354	80.010	19.993	104.301	20.148	3.612	0.542
966.000	575.626	80.012	19.993	104.302	20.146	3.765	0.554
966.500	575.872	80.011	19.993	104.301	20.147	3.699	0.536
967.000	576.165	80.010	19.994	104.299	20.147	3.688	0.529
967.500	576.407	80.012	19.993	104.302	20.146	3.726	0.537
968.001	576.674	80.010	19.993	104.301	20.146	3.738	0.522
968.501	576.952	80.009	19.993	104.297	20.148	3.640	0.527
969.001	577.212	80.011	19.992	104.295	20.146	3.730	0.541
969.501	577.489	80.009	19.993	104.297	20.148	3.616	0.538
970.001	577.760	80.010	19.993	104.297	20.147	3.674	0.543
970.501	578.028	80.010	19.994	104.300	20.146	3.720	0.544
971.000	578.282	80.010	19.994	104.305	20.147	3.685	0.531
971.500	578.561	80.009	19.995	104.311	20.146	3.774	0.527
972.001	578.809	80.009	19.993	104.316	20.144	3.888	0.530
972.501	579.121	80.009	19.994	104.318	20.144	3.890	0.544
973.001	579.357	80.009	19.995	104.316	20.145	3.801	0.554
973.500	579.646	80.010	19.994	104.315	20.146	3.734	0.536
974.000	579.933	80.009	19.994	104.314	20.144	3.899	0.550
974.500	580.232	80.010	19.994	104.311	20.145	3.855	0.581
975.000	580.418	80.008	19.995	104.313	20.146	3.774	0.536
975.500	580.694	80.008	19.995	104.318	20.143	3.967	0.474
976.000	580.968	80.008	19.995	104.316	20.143	3.977	0.506
976.501	581.224	80.010	19.994	104.313	20.144	3.873	0.540
977.000	581.531	80.009	19.994	104.314	20.146	3.788	0.547
977.500	581.748	80.008	19.994	104.311	20.145	3.838	0.543
978.000	582.049	80.009	19.995	104.310	20.144	3.876	0.521
978.500	582.300	80.010	19.994	104.316	20.147	3.695	0.535
979.000	582.592	80.010	19.994	104.320	20.146	3.766	0.547
979.500	582.846	80.009	19.994	104.319	20.147	3.714	0.544
980.000	583.133	80.009	19.995	104.317	20.143	3.990	0.544
980.500	583.398	80.010	19.994	104.312	20.145	3.843	0.547
981.001	583.669	80.009	19.994	104.307	20.145	3.839	0.544
981.500	583.935	80.010	19.994	104.300	20.144	3.889	0.537
982.000	584.201	80.009	19.994	104.297	20.145	3.835	0.535
982.501	584.452	80.010	19.994	104.298	20.146	3.783	0.524
983.001	584.752	80.010	19.994	104.299	20.148	3.614	0.534
983.501	584.982	80.010	19.994	104.299	20.145	3.809	0.541
984.001	585.243	80.011	19.995	104.303	20.145	3.805	0.510
984.501	585.526	80.010	19.994	104.302	20.144	3.860	0.517
985.000	585.776	80.009	19.994	104.299	20.143	3.939	0.539
985.500	586.050	80.011	19.994	104.300	20.143	3.931	0.529
986.001	586.325	80.010	19.993	104.304	20.145	3.840	0.536
986.500	586.570	80.011	19.994	104.303	20.142	4.056	0.534
987.000	586.838	80.011	19.994	104.304	20.144	3.906	0.517
987.500	587.072	80.010	19.994	104.308	20.144	3.898	0.508
988.001	587.386	80.010	19.993	104.306	20.144	3.929	0.525
988.501	587.658	80.011	19.994	104.303	20.146	3.771	0.567
989.000	587.912	80.010	19.993	104.304	20.146	3.784	0.556
989.501	588.180	80.011	19.994	104.304	20.144	3.859	0.524
990.001	588.442	80.010	19.994	104.301	20.147	3.664	0.526
990.500	588.716	80.011	19.993	104.304	20.144	3.895	0.533
991.000	588.926	80.010	19.994	104.303	20.146	3.741	0.510
991.501	589.231	80.010	19.994	104.298	20.146	3.749	0.500
992.001	589.501	80.011	19.992	104.296	20.150	3.450	0.545
992.501	589.796	80.011	19.994	104.296	20.144	3.905	0.570
993.000	590.052	80.011	19.994	104.291	20.147	3.676	0.558
993.500	590.314	80.010	19.994	104.295	20.145	3.805	0.534
994.000	590.554	80.009	19.995	104.302	20.145	3.822	0.510
994.500	590.828	80.010	19.994	104.307	20.147	3.668	0.508
995.000	591.091	80.011	19.993	104.314	20.148	3.645	0.526
995.500	591.369	80.009	19.993	104.322	20.146	3.722	0.539
996.001	591.564	80.010	19.994	104.323	20.147	3.714	0.508
996.501	591.900	80.009	19.993	104.321	20.146	3.770	0.502
997.001	592.173	80.010	19.994	104.319	20.149	3.575	0.570
997.501	592.440	80.010	19.994	104.313	20.148	3.589	0.574
998.001	592.679	80.010	19.994	104.313	20.145	3.855	0.523
998.501	592.924	80.010	19.994	104.313	20.145	3.838	0.495
999.000	593.193	80.009	19.994	104.315	20.145	3.790	0.499
999.500	593.456	80.009	19.994	104.314	20.146	3.747	0.523
1000.000	593.751	80.008	19.993	104.313	20.145	3.842	0.546
1000.501	594.002	80.009	19.994	104.307	20.148	3.627	0.553
1001.000	594.254	80.007	19.994	104.301	20.144	3.919	0.525
1001.500	594.537	80.009	19.994	104.301	20.147	3.699	0.518
1002.000	594.796	80.008	19.995	104.302	20.147	3.660	0.538
1002.501	595.068	80.009	19.994	104.302	20.147	3.691	0.537
1003.001	595.343	80.009	19.994	104.302	20.145	3.847	0.539
1003.500	595.601	80.009	19.994	104.303	20.146	3.756	0.540
1004.001	595.900	80.008	19.994	104.298	20.146	3.739	0.545
1004.501	596.125	80.009	19.994	104.297	20.145	3.797	0.541
1005.001	596.360	80.008	19.995	104.295	20.151	3.434	0.492
1005.500	596.628	80.009	19.994	104.295	20.148	3.606	0.481
1006.000	596.855	80.009	19.995	104.296	20.145	3.816	0.499
1006.500	597.176	80.008	19.995	104.296	20.145	3.799	0.522
1007.000	597.391	80.010	19.995	104.297	20.149	3.558	0.542
1007.500	597.668	80.007	19.995	104.300	20.147	3.682	0.514
1008.000	597.912	80.008	19.995	104.305	20.148	3.636	0.507
1008.501	598.177	80.011	19.995	104.307	20.150	3.479	0.515
1009.001	598.445	80.009	19.995	104.311	20.146	3.736	0.521
1009.500	598.692	80.009	19.995	104.310	20.147	3.691	0.524
1010.000	598.922	80.009	19.994	104.306	20.147	3.656	0.496
1010.500	599.203	80.010	19.995	104.304	20.147	3.687	0.494
1011.001	599.407	80.008	19.995	104.304	20.147	3.664	0.498
1011.501	599.674	80.008	19.994	104.300	20.149	3.573	0.478
1012.001	599.895	80.010	19.994	104.300	20.145	3.799	0.479
1012.500	600.171	80.009	19.993	104.300	20.145	3.849	0.493
1013.000	600.443	80.009	19.993	104.299	20.149	3.564	0.523
1013.500	600.698	80.010	19.994	104.295	20.146	3.749	0.537
1014.001	600.938	80.011	19.994	104.293	20.146	3.760	0.511
1014.501	601.182	80.010	19.994	104.292	20.145	3.843	0.489
1015.000	601.442	80.011	19.994	104.292	20.146	3.753	0.494
1015.500	601.691	80.009	19.993	104.292	20.148	3.627	0.507
1016.001	601.925	80.010	19.993	104.293	20.147	3.714	0.496
1016.501	602.205	80.010	19.992	104.293	20.143	3.963	0.498
1017.000	602.437	80.009	19.992	104.296	20.147	3.708	0.512
1017.500	602.729	80.016	19.994	104.296	20.147	3.654	0.518
1018.000	602.949	80.012	19.995	104.304	20.147	3.689	0.518
1018.500	603.215	80.012	19.994	104.306	20.144	3.917	0.499
1019.000	603.472	80.010	19.993	104.312	20.147	3.686	0.505
1019.500	603.700	80.011	19.994	104.311	20.147	3.711	0.504
1020.000	603.900	80.010	19.994	104.311	20.146	3.782	0.457
1020.500	604.202	80.010	19.995	104.303	20.148	3.635	0.466
1021.000	604.460	80.010	19.993	104.300	20.146	3.755	0.531
1021.500	604.672	80.010	19.993	104.295	20.147	3.691	0.515
1022.000	604.949	80.011	19.994	104.294	20.145	3.849	0.480
1022.500	605.231	80.011	19.994	104.295	20.145	3.832	0.524
1023.000	605.443	80.011	19.993	104.296	20.149	3.552	0.527
1023.500	605.707	80.009	19.993	104.297	20.146	3.764	0.485
1024.000	605.982	80.010	19.993	104.297	20.147	3.672	0.507
1024.501	606.200	80.009	19.992	104.297	20.147	3.716	0.516
1025.001	606.481	80.009	19.994	104.299	20.144	3.872	0.496
1025.500	606.704	80.010	19.993	104.300	20.144	3.901	0.502
1026.001	607.000	80.011	19.993	104.302	20.145	3.843	0.512
1026.501	607.224	80.009	19.993	104.302	20.143	3.930	0.520
1027.000	607.474	80.010	19.993	104.301	20.144	3.894	0.497
1027.501	607.729	80.012	19.993	104.299	20.143	3.934	0.489
1028.001	607.957	80.010	19.993	104.299	20.145	3.851	0.494
1028.501	608.172	80.010	19.993	104.298	20.144	3.915	0.463
1029.001	608.454	80.011	19.993	104.304	20.144	3.859	0.471
1029.501	608.701	80.011	19.993	104.308	20.144	3.928	0.514
1030.001	608.947	80.010	19.993	104.311	20.148	3.625	0.511
1030.501	609.184	80.011	19.994	104.308	20.144	3.887	0.488
1031.001	609.414	80.010	19.993	104.308	20.146	3.724	0.475
1031.502	609.663	80.012	19.993	104.303	20.146	3.754	0.473
1032.001	609.923	80.011	19.993	104.299	20.146	3.735	0.494
1032.500	610.146	80.012	19.993	104.298	20.147	3.660	0.496
1033.001	610.424	80.011	19.994	104.298	20.147	3.691	0.492
1033.501	610.656	80.012	19.994	104.299	20.145	3.841	0.505
1034.000	610.875	80.011	19.994	104.301	20.144	3.887	0.481
1034.500	611.138	80.012	19.994	104.302	20.143	3.969	0.467
1035.000	611.386	80.011	19.994	104.301	20.145	3.839	0.496
1035.501	611.624	80.012	19.993	104.303	20.145	3.853	0.498
1036.001	611.905	80.012	19.993	104.302	20.144	3.922	0.503
1036.501	612.130	80.011	19.993	104.298	20.146	3.756	0.513
1037.000	612.386	80.012	19.994	104.298	20.147	3.662	0.494
1037.500	612.595	80.012	19.993	104.299	20.143	3.945	0.473
1038.000	612.833	80.012	19.993	104.302	20.147	3.695	0.456
1038.500	613.091	80.013	19.994	104.302	20.144	3.880	0.471
1039.000	613.329	80.012	19.992	104.302	20.145	3.849	0.496
1039.501	613.560	80.012	19.994	104.301	20.143	3.942	0.483
1040.001	613.782	80.012	19.994	104.297	20.141	4.125	0.461
1040.501	614.021	80.013	19.994	104.293	20.144	3.875	0.457
1041.000	614.257	80.014	19.993	104.293	20.146	3.722	0.468
1041.500	614.519	80.013	19.992	104.294	20.148	3.591	0.487
1042.000	614.769	80.013	19.993	104.295	20.143	3.974	0.505
1042.500	615.012	80.012	19.993	104.294	20.144	3.864	0.502
1043.000	615.270	80.014	19.993	104.294	20.146	3.764	0.497
1043.501	615.509	80.014	19.994	104.291	20.146	3.766	0.499
1044.000	615.732	80.012	19.993	104.289	20.147	3.689	0.479
1044.500	615.981	80.014	19.993	104.290	20.146	3.787	0.466
1045.001	616.231	80.013	19.993	104.293	20.145	3.830	0.485
1045.501	616.472	80.014	19.993	104.296	20.145	3.841	0.495
1046.001	616.697	80.013	19.993	104.299	20.147	3.691	0.479
1046.500	616.925	80.012	19.993	104.299	20.143	3.963	0.459
1047.000	617.199	80.012	19.993	104.298	20.146	3.778	0.477
1047.501	617.421	80.013	19.993	104.294	20.147	3.712	0.499
1048.000	617.656	80.012	19.993	104.291	20.147	3.672	0.477
1048.500	617.887	80.012	19.994	104.289	20.146	3.764	0.462
1049.001	618.111	80.012	19.993	104.292	20.145	3.801	0.460
1049.501	618.393	80.011	19.992	104.298	20.143	3.941	0.480
1050.001	618.623	80.011	19.994	104.304	20.144	3.920	0.508
1050.501	618.850	80.011	19.994	104.311	20.143	3.959	0.484
1051.001	619.124	80.011	19.992	104.312	20.147	3.712	0.480
1051.501	619.325	80.010	19.993	104.310	20.144	3.928	0.488
1052.000	619.568	80.011	19.993	104.303	20.147	3.679	0.459
1052.500	619.818	80.010	19.993	104.302	20.144	3.884	0.469
1053.001	620.079	80.011	19.993	104.298	20.144	3.882	0.502
1053.501	620.289	80.011	19.994	104.297	20.145	3.845	0.491
1054.001	620.494	80.010	19.993	104.297	20.143	3.967	0.443
1054.501	620.786	80.010	19.994	104.296	20.143	3.986	0.456
1055.000	621.000	80.011	19.993	104.294	20.142	4.052	0.501
1055.500	621.250	80.011	19.994	104.292	20.142	4.011	0.485
1056.001	621.493	80.010	19.993	104.292	20.144	3.899	0.479
1056.500	621.760	80.011	19.993	104.292	20.143	3.982	0.502
1057.000	621.982	80.010	19.993	104.293	20.141	4.081	0.499
1057.500	622.250	80.011	19.994	104.294	20.142	4.025	0.489
1058.000	622.484	80.009	19.993	104.296	20.144	3.874	0.496
1058.500	622.729	80.010	19.994	104.297	20.140	4.175	0.490
1059.001	622.970	80.011	19.993	104.297	20.143	3.978	0.483
1059.501	623.207	80.011	19.994	104.296	20.143	3.988	0.482
1060.000	623.423	80.010	19.994	104.293	20.140	4.160	0.466
1060.500	623.688	80.010	19.993	104.291	20.141	4.136	0.467
1061.000	623.921	80.010	19.993	104.292	20.141	4.129	0.489
1061.500	624.187	80.010	19.994	104.292	20.141	4.092	0.498
1062.000	624.403	80.010	19.995	104.293	20.142	4.064	0.491
1062.500	624.618	80.010	19.994	104.294	20.142	4.064	0.457
1063.000	624.881	80.010	19.993	104.294	20.140	4.201	0.455
1063.500	625.125	80.010	19.993	104.294	20.141	4.106	0.492
1064.000	625.377	80.010	19.993	104.296	20.138	4.281	0.501
1064.500	625.591	80.011	19.995	104.300	20.142	4.044	0.481
1065.000	625.885	80.011	19.994	104.301	20.144	3.905	0.487
1065.500	626.074	80.010	20.003	104.302	20.143	3.932	0.496
1066.000	626.332	80.010	20.004	104.306	20.142	4.067	0.465
1066.500	626.602	80.010	20.002	104.309	20.144	3.886	0.488
1067.001	626.835	80.010	20.002	104.305	20.144	3.869	0.515
1067.501	627.055	80.009	20.002	104.304	20.146	3.771	0.478
1068.001	627.279	80.011	20.000	104.304	20.144	3.900	0.449
1068.500	627.549	80.010	19.999	104.300	20.142	4.000	0.470
1069.000	627.794	80.009	19.997	104.298	20.142	4.025	0.505
1069.500	628.064	80.009	19.996	104.299	20.140	4.158	0.515
1070.000	628.289	80.010	19.995	104.298	20.140	4.167	0.505
1070.500	628.552	80.010	19.995	104.299	20.141	4.090	0.491
1071.000	628.812	80.010	19.996	104.298	20.142	4.019	0.505
1071.500	629.029	80.009	19.995	104.300	20.141	4.081	0.500
1072.000	629.290	80.010	19.994	104.302	20.140	4.185	0.478
1072.500	629.526	80.009	19.993	104.307	20.142	4.067	0.488
1073.000	629.723	80.009	19.995	104.311	20.143	3.940	0.465
1073.500	630.020	80.010	19.994	104.314	20.141	4.108	0.464
1074.001	630.250	80.008	19.995	104.310	20.141	4.104	0.510
1074.501	630.482	80.009	19.994	104.307	20.144	3.924	0.494
1075.001	630.778	80.009	19.995	104.302	20.139	4.212	0.495
1075.501	631.020	80.010	19.994	104.297	20.142	4.060	0.533
1076.000	631.269	80.009	19.994	104.294	20.140	4.166	0.515
1076.500	631.502	80.008	19.994	104.296	20.141	4.129	0.487
1077.000	631.742	80.009	19.993	104.297	20.141	4.108	0.478
1077.500	631.962	80.011	19.995	104.305	20.141	4.114	0.466
1078.001	632.214	80.011	19.995	104.312	20.141	4.071	0.466
1078.500	632.476	80.010	19.996	104.312	20.140	4.150	0.493
1079.000	632.721	80.008	19.995	104.311	20.141	4.133	0.510
1079.500	632.988	80.009	19.994	104.310	20.139	4.229	0.510
1080.000	633.224	80.009	19.996	104.303	20.139	4.223	0.508
1080.500	633.503	80.010	19.994	104.300	20.138	4.345	0.509
1081.000	633.751	80.009	19.994	104.300	20.141	4.117	0.521
1081.501	633.971	80.009	19.994	104.298	20.142	4.051	0.498
1082.000	634.255	80.009	19.995	104.297	20.139	4.221	0.486
1082.500	634.518	80.008	19.994	104.299	20.142	4.049	0.525
1083.001	634.777	80.009	19.994	104.298	20.138	4.283	0.534
1083.501	635.001	80.009	19.995	104.301	20.138	4.346	0.502
1084.001	635.286	80.008	19.993	104.303	20.137	4.352	0.496
1084.501	635.544	80.009	19.994	104.303	20.136	4.450	0.526
1085.000	635.781	80.009	19.993	104.303	20.139	4.261	0.519
1085.500	636.059	80.008	19.995	104.303	20.136	4.470	0.505
1086.000	636.295	80.010	19.995	104.304	20.134	4.624	0.515
1086.501	636.579	80.008	19.995	104.308	20.137	4.379	0.517
1087.001	636.809	80.008	19.994	104.313	20.133	4.671	0.517
1087.501	637.057	80.009	19.994	104.317	20.134	4.563	0.496
1088.000	637.317	80.008	19.994	104.317	20.139	4.233	0.493
1088.500	637.571	80.009	19.994	104.312	20.137	4.352	0.511
1089.000	637.849	80.009	19.994	104.308	20.135	4.553	0.523
1089.500	638.071	80.008	19.994	104.305	20.136	4.454	0.516
1090.000	638.362	80.009	19.993	104.299	20.136	4.439	0.506
1090.500	638.593	80.009	19.994	104.297	20.135	4.500	0.518
1091.001	638.858	80.009	19.994	104.297	20.135	4.558	0.509
1091.501	639.123	80.009	19.994	104.297	20.135	4.556	0.513
1092.001	639.381	80.009	19.994	104.296	20.135	4.502	0.526
1092.500	639.622	80.010	19.994	104.296	20.137	4.393	0.511
1093.000	639.900	80.010	19.994	104.296	20.133	4.686	0.509
1093.501	640.144	80.010	19.993	104.293	20.136	4.454	0.521
1094.001	640.439	80.010	19.995	104.294	20.137	4.354	0.531
1094.500	640.663	80.010	19.995	104.293	20.136	4.445	0.529
1095.000	640.903	80.009	19.994	104.292	20.139	4.256	0.492
1095.501	641.152	80.011	19.994	104.291	20.137	4.379	0.477
1096.001	641.424	80.010	19.994	104.291	20.138	4.290	0.505
1096.500	641.667	80.010	19.994	104.290	20.140	4.148	0.518
1097.000	641.926	80.011	19.994	104.291	20.137	4.366	0.509
1097.500	642.170	80.011	19.993	104.298	20.137	4.398	0.503
1098.001	642.420	80.011	19.996	104.300	20.137	4.375	0.498
1098.501	642.682	80.010	19.994	104.300	20.137	4.412	0.503
1099.000	642.976	80.011	19.994	104.300	20.135	4.513	0.534
1099.501	643.205	80.011	19.995	104.299	20.136	4.466	0.539
1100.001	643.462	80.010	19.994	104.292	20.135	4.547	0.505
1100.500	643.697	80.011	19.995	104.289	20.135	4.549	0.490
1101.000	643.964	80.010	19.994	104.289	20.135	4.559	0.497
1101.500	644.256	80.011	19.994	104.289	20.131	4.771	0.530
1102.000	644.490	80.010	19.995	104.289	20.135	4.501	0.542
1102.500	644.761	80.011	19.995	104.289	20.133	4.636	0.516
1103.000	645.032	80.011	19.994	104.289	20.135	4.530	0.524
1103.500	645.267	80.011	19.994	104.290	20.133	4.698	0.524
1104.000	645.545	80.010	19.994	104.292	20.131	4.802	0.510
1104.500	645.801	80.011	19.996	104.292	20.132	4.766	0.524
1105.000	646.049	80.010	19.994	104.293	20.135	4.549	0.519
1105.501	646.314	80.009	19.995	104.293	20.132	4.709	0.508
1106.000	646.571	80.011	19.994	104.293	20.131	4.809	0.517
1106.500	646.827	80.011	19.995	104.294	20.134	4.595	0.518
1107.001	647.087	80.011	19.994	104.293	20.132	4.738	0.515
1107.500	647.354	80.009	19.995	104.294	20.131	4.831	0.521
1108.000	647.601	80.011	19.995	104.294	20.129	4.947	0.520
1108.500	647.884	80.012	19.995	104.294	20.131	4.793	0.522
1109.000	648.154	80.010	19.994	104.297	20.131	4.814	0.541
1109.500	648.387	80.012	19.994	104.299	20.132	4.760	0.528
1110.000	648.682	80.011	19.994	104.299	20.133	4.657	0.515
1110.500	648.960	80.010	19.994	104.303	20.133	4.642	0.551
1111.000	649.216	80.011	19.993	104.303	20.132	4.761	0.554
1111.501	649.480	80.011	19.993	104.299	20.136	4.472	0.526
1112.001	649.752	80.010	19.994	104.300	20.131	4.825	0.528
1112.500	649.995	80.012	19.993	104.301	20.131	4.818	0.526
1113.001	650.230	80.011	19.994	104.306	20.132	4.735	0.496
1113.501	650.558	80.011	19.994	104.310	20.129	4.941	0.521
1114.001	650.803	80.010	19.994	104.313	20.130	4.854	0.568
1114.501	651.078	80.011	19.993	104.313	20.128	5.002	0.546
1115.000	651.378	80.010	19.993	104.314	20.128	5.050	0.548
1115.500	651.629	80.012	19.993	104.308	20.130	4.863	0.563
1116.000	651.876	80.011	19.993	104.304	20.131	4.784	0.524
1116.500	652.137	80.011	19.993	104.301	20.131	4.802	0.503
1117.001	652.433	80.011	19.994	104.298	20.128	5.008	0.533
1117.501	652.695	80.011	19.994	104.298	20.130	4.842	0.557
1118.000	652.971	80.012	19.994	104.299	20.130	4.862	0.548
1118.500	653.270	80.012	19.994	104.302	20.130	4.868	0.557
1119.000	653.531	80.012	19.993	104.307	20.129	4.916	0.567
1119.500	653.801	80.013	19.993	104.311	20.128	4.993	0.546
1120.000	654.062	80.012	19.993	104.309	20.130	4.893	0.531
1120.500	654.344	80.014	19.993	104.305	20.128	5.028	0.537
1121.000	654.625	80.012	19.993	104.303	20.129	4.974	0.554
1121.500	654.902	80.013	19.993	104.301	20.129	4.935	0.561
1122.000	655.178	80.012	19.995	104.302	20.130	4.906	0.555
1122.500	655.508	80.014	19.994	104.305	20.130	4.904	0.579
1123.001	655.744	80.013	19.994	104.310	20.128	5.028	0.586
1123.501	656.064	80.014	19.993	104.314	20.133	4.653	0.561
1124.001	656.311	80.013	19.993	104.312	20.130	4.848	0.561
1124.501	656.664	80.013	19.993	104.308	20.129	4.944	0.583
1125.000	656.933	80.014	19.994	104.304	20.127	5.108	0.611
1125.500	657.225	80.013	19.992	104.299	20.129	4.975	0.591
1126.001	657.452	80.014	19.993	104.295	20.127	5.112	0.540
1126.500	657.703	80.014	19.993	104.294	20.127	5.081	0.499
1127.000	657.999	80.012	19.993	104.293	20.133	4.650	0.513
1127.500	658.307	80.013	19.994	104.294	20.130	4.847	0.575
1128.001	658.589	80.013	19.994	104.298	20.129	4.974	0.597
1128.500	658.894	80.012	19.994	104.302	20.133	4.690	0.589
1129.000	659.134	80.013	19.993	104.308	20.129	4.928	0.566
1129.501	659.465	80.013	19.992	104.312	20.132	4.702	0.558
1130.000	659.709	80.012	19.993	104.314	20.131	4.821	0.573
1130.500	660.027	80.011	19.994	104.309	20.129	4.947	0.568
1131.000	660.271	80.011	19.992	104.304	20.131	4.798	0.562
1131.500	660.589	80.012	19.993	104.302	20.132	4.738	0.562
1132.000	660.863	80.012	19.993	104.302	20.130	4.854	0.577
1132.500	661.159	80.011	19.993	104.303	20.128	5.020	0.581
1133.001	661.460	80.011	19.993	104.304	20.128	4.989	0.584
1133.500	661.750	80.011	19.993	104.305	20.127	5.077	0.594
1134.000	661.999	80.011	19.993	104.302	20.130	4.861	0.565
1134.501	662.302	80.010	19.994	104.298	20.128	5.048	0.545
1135.001	662.627	80.010	19.992	104.299	20.131	4.811	0.589
1135.500	662.867	80.009	19.993	104.298	20.126	5.122	0.597
1136.000	663.135	80.011	19.994	104.298	20.130	4.846	0.537
1136.500	663.450	80.011	19.994	104.299	20.130	4.876	0.546
1137.000	663.731	80.010	19.992	104.299	20.127	5.084	0.589
1137.501	664.016	80.009	19.994	104.296	20.130	4.899	0.581
1138.001	664.325	80.009	19.994	104.302	20.128	5.028	0.580
1138.501	664.603	80.010	19.994	104.309	20.130	4.899	0.590
1139.000	664.881	80.012	19.994	104.309	20.127	5.076	0.571
1139.500	665.182	80.011	19.993	104.309	20.128	4.985	0.568
1140.000	665.466	80.010	19.993	104.309	20.132	4.723	0.582
1140.500	665.750	80.011	19.995	104.304	20.129	4.937	0.577
1141.001	666.051	80.010	19.994	104.300	20.129	4.933	0.577
1141.501	666.339	80.010	19.995	104.303	20.124	5.263	0.587
1142.001	666.631	80.010	19.994	104.303	20.127	5.074	0.584
1142.501	666.882	80.009	19.993	104.301	20.126	5.143	0.562
1143.001	667.200	80.009	19.993	104.300	20.124	5.322	0.557
1143.501	667.460	80.010	19.994	104.298	20.128	5.039	0.574
1144.001	667.732	80.010	19.993	104.295	20.128	4.995	0.555
1144.501	668.033	80.009	19.993	104.294	20.129	4.935	0.553
1145.001	668.313	80.011	19.993	104.295	20.127	5.054	0.577
1145.501	668.597	80.009	19.992	104.294	20.131	4.802	0.572
1146.000	668.873	80.011	19.994	104.294	20.126	5.180	0.562
1146.500	669.142	80.010	19.992	104.298	20.128	5.029	0.553
1147.000	669.431	80.010	19.994	104.304	20.126	5.145	0.552
1147.500	669.683	80.010	19.993	104.311	20.129	4.954	0.549
1148.000	669.973	80.009	19.993	104.316	20.126	5.174	0.541
1148.500	670.287	80.010	19.993	104.321	20.126	5.147	0.573
1149.000	670.580	80.010	19.993	104.318	20.125	5.207	0.606
1149.500	670.849	80.012	19.992	104.315	20.122	5.450	0.584
1150.000	671.132	80.009	19.993	104.308	20.125	5.230	0.556
1150.501	671.392	80.012	19.993	104.308	20.124	5.280	0.548
1151.000	671.674	80.011	19.993	104.309	20.123	5.390	0.543
1151.500	671.966	80.009	19.994	104.309	20.124	5.278	0.558
1152.001	672.251	80.011	19.993	104.307	20.124	5.284	0.575
1152.501	672.512	80.009	19.993	104.307	20.125	5.243	0.561
1153.000	672.805	80.009	19.993	104.303	20.125	5.230	0.550
1153.500	673.104	80.011	19.993	104.298	20.126	5.137	0.573
1154.001	673.391	80.009	19.993	104.298	20.125	5.249	0.589
1154.501	673.663	80.010	19.993	104.300	20.124	5.313	0.572
1155.001	673.974	80.010	19.993	104.302	20.126	5.129	0.571
1155.500	674.243	80.010	19.993	104.301	20.124	5.286	0.582
1156.000	674.497	80.010	19.994	104.300	20.125	5.203	0.552
1156.501	674.792	80.008	19.994	104.299	20.123	5.339	0.535
1157.000	675.101	80.010	19.992	104.297	20.126	5.164	0.577
1157.500	675.404	80.010	19.993	104.298	20.126	5.181	0.608
1158.000	675.641	80.010	19.994	104.299	20.125	5.241	0.576
1158.500	675.934	80.012	19.995	104.299	20.123	5.339	0.535
1159.001	676.195	80.012	19.994	104.299	20.126	5.148	0.542
1159.501	676.483	80.011	19.993	104.302	20.125	5.193	0.552
1160.000	676.722	80.009	19.994	104.299	20.123	5.357	0.538
1160.500	677.042	80.010	19.994	104.297	20.122	5.432	0.543
1161.000	677.323	80.011	19.993	104.299	20.125	5.208	0.580
1161.500	677.600	80.011	19.994	104.298	20.125	5.249	0.579
1162.000	677.887	80.010	19.993	104.296	20.123	5.382	0.560
1162.500	678.132	80.012	19.995	104.299	20.122	5.449	0.548
1163.001	678.431	80.010	19.994	104.301	20.121	5.525	0.539
1163.500	678.690	80.010	19.994	104.299	20.126	5.156	0.551
1164.000	678.955	80.009	19.994	104.300	20.124	5.287	0.541
1164.501	679.229	80.009	19.994	104.298	20.124	5.278	0.531
1165.001	679.536	80.010	19.994	104.298	20.124	5.270	0.560
1165.501	679.779	80.010	19.994	104.298	20.124	5.270	0.566
1166.001	680.023	80.008	19.994	104.297	20.124	5.291	0.518
1166.501	680.322	80.008	19.995	104.297	20.126	5.127	0.515
1167.001	680.618	80.010	19.995	104.296	20.127	5.091	0.569
1167.501	680.868	80.009	19.995	104.292	20.127	5.064	0.571
1168.001	681.161	80.010	19.995	104.291	20.125	5.210	0.545
1168.501	681.404	80.008	19.994	104.291	20.126	5.185	0.539
1169.001	681.661	80.010	19.996	104.290	20.125	5.243	0.518
1169.501	681.907	80.009	19.994	104.291	20.123	5.332	0.501
1170.001	682.210	80.009	19.994	104.290	20.123	5.362	0.526
1170.500	682.458	80.009	19.994	104.291	20.123	5.364	0.550
1171.000	682.719	80.010	19.995	104.291	20.125	5.233	0.530
1171.501	682.964	80.010	19.995	104.291	20.125	5.208	0.508
1172.000	683.299	80.010	19.994	104.291	20.126	5.123	0.543
1172.500	683.504	80.010	19.994	104.291	20.123	5.347	0.560
1173.000	683.786	80.010	19.995	104.290	20.127	5.056	0.513
1173.501	684.034	80.009	19.995	104.291	20.126	5.177	0.509
1174.000	684.300	80.009	19.995	104.293	20.126	5.126	0.522
1174.500	684.595	80.009	19.995	104.293	20.125	5.193	0.537
1175.001	684.839	80.011	19.994	104.294	20.128	5.015	0.550
1175.501	685.065	80.010	19.995	104.293	20.125	5.210	0.505
1176.001	685.336	80.010	19.994	104.292	20.124	5.281	0.484
1176.500	685.600	80.010	19.995	104.290	20.127	5.116	0.516
1177.000	685.842	80.011	19.994	104.290	20.126	5.167	0.520
1177.500	686.102	80.010	19.994	104.290	20.124	5.275	0.504
1178.000	686.358	80.012	19.994	104.291	20.127	5.106	0.509
1178.500	686.608	80.011	19.994	104.290	20.129	4.938	0.511
1179.001	686.860	80.011	19.994	104.290	20.128	5.020	0.504
1179.501	687.098	80.010	19.994	104.290	20.127	5.098	0.496
1180.000	687.338	80.010	19.993	104.289	20.128	5.031	0.484
1180.500	687.592	80.011	19.995	104.289	20.126	5.183	0.485
1181.000	687.885	80.012	19.994	104.289	20.125	5.229	0.520
1181.500	688.091	80.012	19.993	104.292	20.130	4.855	0.523
1182.001	688.377	80.010	19.994	104.292	20.129	4.940	0.495
1182.501	688.619	80.012	19.994	104.292	20.128	5.017	0.510
1183.001	688.820	80.012	19.993	104.293	20.127	5.104	0.486
1183.501	689.060	80.012	19.992	104.292	20.129	4.942	0.443
1184.001	689.296	80.010	19.994	104.291	20.126	5.163	0.459
1184.500	689.564	80.012	19.994	104.282	20.129	4.920	0.490
1185.000	689.761	80.010	19.993	104.260	20.130	4.870	0.485
1185.500	690.027	80.013	19.994	104.247	20.130	4.905	0.464
1186.000	690.267	80.010	19.995	104.242	20.130	4.863	0.484
1186.501	690.503	80.011	19.993	104.241	20.128	5.031	0.491
1187.001	690.755	80.012	19.993	104.251	20.131	4.807	0.482
1187.501	690.997	80.011	19.994	104.296	20.126	5.166	0.492
1188.000	691.253	80.011	19.993	104.318	20.132	4.717	0.497
1188.500	691.480	80.011	19.994	104.323	20.129	4.942	0.491
1189.000	691.692	80.011	19.994	104.323	20.129	4.946	0.461
1189.500	691.914	80.012	19.993	104.321	20.127	5.077	0.436
1190.000	692.143	80.011	19.994	104.298	20.131	4.803	0.442
1190.501	692.376	80.010	19.994	104.288	20.128	5.015	0.457
1191.001	692.601	80.010	19.995	104.287	20.129	4.925	0.461
1191.501	692.826	80.010	19.994	104.287	20.128	4.992	0.454
1192.001	693.089	80.011	19.995	104.287	20.131	4.813	0.468
1192.501	693.336	80.010	19.994	104.287	20.131	4.828	0.499
1193.001	693.465	80.011	19.994	104.287	20.126	5.133	0.443
1193.501	693.745	80.009	19.994	104.285	20.132	4.761	0.393
1194.001	694.006	80.010	19.994	104.282	20.129	4.977	0.475
1194.500	694.210	80.011	19.995	104.280	20.130	4.853	0.503
1195.000	694.442	80.010	19.994	104.280	20.128	5.025	0.450
1195.500	694.674	80.012	19.994	104.280	20.128	5.014	0.450
1196.000	694.918	80.011	19.994	104.283	20.126	5.137	0.470
1196.501	695.147	80.010	19.994	104.287	20.126	5.150	0.475
1197.001	695.339	80.008	19.993	104.290	20.126	5.145	0.447
1197.500	695.584	80.010	19.996	104.290	20.122	5.415	0.429
1198.000	695.829	80.010	19.995	104.290	20.127	5.093	0.463
1198.500	696.089	80.012	19.995	104.291	20.125	5.208	0.498
1199.000	696.322	80.012	19.997	104.291	20.125	5.204	0.499
1199.500	696.560	80.011	19.996	104.292	20.122	5.447	0.481
1200.000	696.810	80.012	19.996	104.292	20.124	5.276	0.480
1200.500	697.000	80.011	19.994	104.293	20.125	5.218	0.465
1201.000	697.246	80.012	19.994	104.292	20.124	5.282	0.438
1201.500	697.467	80.011	19.994	104.293	20.124	5.293	0.451
1202.000	697.728	80.012	19.993	104.292	20.124	5.272	0.474
1202.501	697.947	80.011	19.995	104.291	20.124	5.305	0.481
1203.000	698.168	80.012	19.995	104.291	20.126	5.188	0.460
1203.500	698.404	80.013	19.994	104.290	20.121	5.485	0.449
1204.001	698.658	80.011	19.994	104.290	20.120	5.556	0.474
1204.501	698.888	80.013	19.994	104.291	20.120	5.559	0.487
1205.001	699.105	80.011	19.995	104.292	20.121	5.486	0.466
1205.500	699.337	80.013	19.994	104.292	20.123	5.340	0.447
1206.000	699.576	80.011	19.995	104.293	20.120	5.567	0.460
1206.501	699.801	80.012	19.994	104.292	20.125	5.230	0.468
1207.001	700.045	80.012	19.994	104.292	20.120	5.542	0.467
1207.501	700.321	80.013	19.994	104.291	20.120	5.608	0.495
1208.001	700.515	80.012	19.994	104.291	20.123	5.340	0.495
1208.501	700.714	80.012	19.993	104.291	20.121	5.482	0.432
1209.000	700.970	80.012	19.993	104.292	20.122	5.436	0.425
1209.500	701.200	80.013	19.992	104.292	20.119	5.656	0.470
1210.000	701.462	80.013	19.992	104.292	20.125	5.249	0.489
1210.500	701.653	80.011	19.994	104.292	20.123	5.355	0.473
1211.000	701.884	80.012	19.993	104.294	20.120	5.600	0.438
1211.501	702.139	80.012	19.992	104.293	20.124	5.311	0.454
1212.001	702.359	80.011	19.994	104.293	20.123	5.347	0.480
1212.500	702.609	80.011	19.993	104.296	20.122	5.436	0.472
1213.000	702.849	80.011	19.993	104.301	20.121	5.517	0.480
1213.500	703.081	80.010	19.994	104.301	20.121	5.517	0.481
1214.000	703.332	80.011	19.993	104.301	20.121	5.540	0.478
1214.500	703.565	80.011	19.993	104.301	20.120	5.592	0.483
1215.001	703.803	80.012	19.992	104.299	20.121	5.536	0.477
1215.501	704.029	80.011	19.993	104.295	20.119	5.613	0.468
1216.000	704.283	80.009	19.993	104.295	20.122	5.418	0.472
1216.500	704.525	80.009	19.993	104.297	20.119	5.665	0.488
1217.001	704.766	80.009	19.993	104.302	20.121	5.521	0.490
1217.501	704.996	80.011	19.993	104.302	20.122	5.447	0.477
1218.001	705.239	80.010	19.994	104.302	20.122	5.401	0.472
1218.501	705.466	80.010	19.993	104.301	20.120	5.554	0.471
1219.001	705.725	80.010	19.994	104.298	20.119	5.656	0.478
1219.501	705.971	80.012	19.992	104.295	20.121	5.534	0.495
1220.001	706.221	80.010	19.992	104.295	20.119	5.639	0.501
1220.501	706.468	80.010	19.993	104.297	20.118	5.718	0.497
1221.001	706.708	80.010	19.993	104.297	20.118	5.712	0.492
1221.500	706.969	80.012	19.993	104.299	20.120	5.579	0.494
1222.000	707.203	80.011	19.994	104.297	20.122	5.428	0.498
1222.501	707.455	80.010	19.993	104.296	20.122	5.420	0.490
1223.000	707.719	80.009	19.993	104.294	20.122	5.417	0.501
1223.500	707.963	80.009	19.994	104.295	20.122	5.434	0.512
1224.000	708.196	80.010	19.992	104.295	20.121	5.488	0.492
1224.500	708.453	80.010	19.993	104.295	20.121	5.507	0.483
1225.000	708.702	80.010	19.994	104.296	20.126	5.157	0.498
1225.500	708.965	80.010	19.994	104.296	20.123	5.388	0.509
1226.000	709.236	80.010	19.993	104.294	20.121	5.484	0.523
1226.500	709.495	80.011	19.993	104.292	20.121	5.506	0.532
1227.000	709.721	80.009	19.993	104.292	20.120	5.542	0.507
1227.501	709.998	80.010	19.993	104.290	20.120	5.590	0.494
1228.001	710.208	80.011	19.995	104.292	20.123	5.395	0.495
1228.501	710.530	80.010	19.993	104.292	20.123	5.384	0.510
1229.000	710.739	80.011	19.994	104.293	20.120	5.542	0.531
1229.500	710.976	80.010	19.993	104.293	20.118	5.691	0.489
1230.000	711.268	80.009	19.994	104.295	20.120	5.549	0.488
1230.500	711.479	80.011	19.993	104.296	20.123	5.381	0.516
1231.000	711.814	80.009	19.993	104.297	20.118	5.693	0.524
1231.501	712.049	80.010	19.995	104.296	20.121	5.531	0.558
1232.001	712.276	80.010	19.994	104.297	20.124	5.305	0.515
1232.501	712.565	80.011	19.993	104.296	20.120	5.596	0.489
1233.001	712.836	80.010	19.995	104.293	20.122	5.451	0.538
1233.500	713.066	80.011	19.994	104.293	20.120	5.557	0.531
1234.000	713.350	80.010	19.994	104.294	20.118	5.717	0.508
1234.500	713.604	80.011	19.993	104.293	20.125	5.256	0.526
1235.000	713.846	80.011	19.994	104.292	20.126	5.177	0.517
1235.500	714.143	80.010	19.994	104.296	20.121	5.519	0.518
1236.000	714.403	80.011	19.994	104.300	20.119	5.617	0.548
1236.500	714.695	80.010	19.994	104.298	20.133	4.672	0.554
1237.000	714.939	80.012	19.995	104.284	20.135	4.497	0.544
1237.500	715.212	80.011	19.995	104.269	20.118	5.694	0.527
1238.000	715.491	80.011	19.996	104.254	20.120	5.556	0.535
1238.501	715.746	80.014	19.994	104.246	20.116	5.828	0.543
1239.001	716.053	80.010	19.994	104.247	20.123	5.342	0.548
1239.500	716.309	80.011	19.994	104.262	20.131	4.819	0.562
1240.000	716.541	80.011	19.995	104.287	20.116	5.880	0.525
1240.500	716.851	80.010	19.994	104.332	20.116	5.851	0.515
1241.000	717.087	80.010	19.994	104.346	20.116	5.847	0.544
1241.500	717.367	80.012	19.994	104.348	20.117	5.807	0.531
1242.000	717.609	80.011	19.993	104.349	20.116	5.839	0.519
1242.501	717.848	80.011	19.995	104.342	20.117	5.770	0.501
1243.001	718.153	80.010	19.994	104.307	20.117	5.772	0.512
1243.500	718.390	80.011	19.993	104.297	20.117	5.768	0.544
1244.000	718.674	80.012	19.994	104.295	20.119	5.669	0.532
1244.500	718.927	80.009	19.994	104.292	20.119	5.681	0.528
1245.000	719.199	80.011	19.994	104.290	20.119	5.660	0.531
1245.500	719.474	80.010	19.994	104.291	20.118	5.751	0.536
1246.000	719.720	80.011	19.993	104.290	20.116	5.882	0.534
1246.500	720.008	80.011	19.994	104.293	20.120	5.567	0.528
1247.001	720.196	80.009	19.993	104.297	20.118	5.746	0.505
1247.501	720.555	80.010	19.993	104.297	20.117	5.770	0.511
1248.000	720.804	80.010	19.993	104.297	20.116	5.838	0.578
1248.500	721.055	80.011	19.994	104.297	20.116	5.851	0.554
1249.000	721.349	80.010	19.995	104.298	20.115	5.936	0.523
1249.501	721.588	80.011	19.995	104.298	20.115	5.905	0.539
1250.001	721.846	80.011	19.995	104.303	20.116	5.845	0.515
1250.501	722.075	80.010	19.994	104.304	20.118	5.735	0.492
1251.001	722.362	80.010	19.994	104.304	20.115	5.955	0.501
1251.501	722.631	80.009	19.994	104.305	20.114	5.966	0.536
1252.000	722.887	80.010	19.994	104.305	20.114	5.985	0.541
1252.500	723.180	80.010	19.993	104.302	20.115	5.904	0.537
1253.000	723.437	80.009	19.993	104.301	20.115	5.945	0.550
1253.500	723.689	80.009	19.994	104.302	20.115	5.905	0.530
1254.000	723.920	80.010	19.994	104.299	20.116	5.849	0.496
1254.500	724.264	80.009	19.994	104.297	20.116	5.845	0.529
1255.000	724.490	80.009	19.994	104.298	20.117	5.768	0.573
1255.500	724.768	80.011	19.994	104.300	20.115	5.924	0.537
1256.001	725.013	80.011	19.993	104.301	20.116	5.830	0.513
1256.501	725.287	80.012	19.994	104.301	20.122	5.461	0.521
1257.001	725.546	80.014	19.993	104.299	20.113	6.051	0.526
1257.501	725.816	80.009	19.995	104.295	20.114	6.020	0.531
1258.000	726.131	80.009	19.996	104.295	20.115	5.930	0.557
1258.500	726.379	80.011	19.996	104.299	20.115	5.915	0.574
1259.000	726.620	80.009	19.995	104.304	20.118	5.724	0.525
1259.500	726.865	80.011	19.996	104.308	20.115	5.938	0.488
1260.000	727.174	80.011	19.994	104.312	20.118	5.722	0.520
1260.500	727.413	80.011	19.996	104.311	20.116	5.853	0.551
1261.000	727.669	80.010	19.994	104.305	20.120	5.583	0.522
1261.500	727.958	80.012	19.993	104.299	20.116	5.890	0.520
1262.000	728.214	80.011	19.992	104.296	20.119	5.676	0.545
1262.501	728.486	80.011	19.995	104.292	20.116	5.841	0.536
1263.001	728.712	80.013	19.994	104.292	20.116	5.841	0.513
1263.500	728.978	80.012	19.994	104.291	20.114	5.970	0.495
1264.000	729.263	80.011	19.994	104.293	20.117	5.779	0.522
1264.501	729.547	80.010	19.994	104.294	20.114	6.024	0.560
1265.001	729.803	80.013	19.994	104.295	20.113	6.101	0.554
1265.500	730.035	80.012	19.995	104.295	20.115	5.933	0.514
1266.000	730.332	80.010	19.994	104.297	20.117	5.789	0.509
1266.501	730.571	80.011	19.994	104.297	20.114	6.026	0.532
1267.001	730.801	80.011	19.994	104.299	20.111	6.198	0.502
1267.501	731.068	80.013	19.995	104.298	20.115	5.945	0.483
1268.000	731.356	80.012	19.994	104.298	20.116	5.864	0.526
1268.500	731.631	80.011	19.994	104.297	20.112	6.122	0.559
1269.000	731.881	80.009	19.994	104.298	20.111	6.196	0.544
1269.500	732.141	80.009	19.994	104.300	20.116	5.829	0.518
1270.000	732.404	80.011	19.993	104.303	20.113	6.059	0.517
1270.501	732.671	80.011	19.993	104.302	20.114	5.985	0.526
1271.001	732.907	80.011	19.994	104.302	20.116	5.889	0.516
1271.501	733.190	80.012	19.994	104.304	20.113	6.034	0.511
1272.000	733.411	80.011	19.994	104.301	20.114	5.968	0.511
1272.500	733.710	80.011	19.995	104.302	20.113	6.059	0.512
1273.001	733.950	80.011	19.993	104.304	20.109	6.320	0.530
1273.501	734.270	80.009	19.994	104.305	20.115	5.894	0.549
1274.001	734.466	80.011	19.994	104.302	20.110	6.246	0.537
1274.500	734.756	80.010	19.994	104.301	20.108	6.449	0.501
1275.000	735.041	80.010	19.995	104.298	20.111	6.213	0.531
1275.500	735.256	80.010	19.993	104.296	20.113	6.074	0.537
1276.000	735.528	80.012	19.994	104.295	20.111	6.228	0.493
1276.501	735.791	80.011	19.994	104.294	20.113	6.072	0.511
1277.001	736.042	80.010	19.995	104.295	20.111	6.225	0.525
1277.501	736.326	80.011	19.993	104.294	20.112	6.113	0.525
1278.002	736.582	80.011	19.994	104.294	20.113	6.078	0.538
1278.501	736.808	80.012	19.994	104.293	20.115	5.930	0.511
1279.001	737.053	80.011	19.993	104.293	20.113	6.086	0.476
1279.502	737.327	80.011	19.993	104.294	20.114	6.008	0.495
1280.001	737.590	80.013	19.994	104.294	20.114	5.993	0.528
1280.500	737.827	80.012	19.994	104.294	20.114	5.989	0.519
1281.000	738.106	80.010	19.994	104.294	20.111	6.207	0.508
1281.500	738.319	80.011	19.994	104.294	20.109	6.371	0.504
1282.000	738.605	80.011	19.993	104.293	20.113	6.037	0.495
1282.500	738.871	80.012	19.994	104.295	20.110	6.267	0.525
1283.000	739.090	80.011	19.993	104.296	20.111	6.205	0.518
1283.501	739.393	80.012	19.994	104.301	20.113	6.043	0.504
1284.001	739.647	80.011	19.994	104.306	20.111	6.230	0.540
1284.501	739.952	80.011	19.993	104.306	20.113	6.089	0.558
1285.001	740.165	80.012	19.994	104.303	20.111	6.188	0.538
1285.501	740.396	80.010	19.994	104.302	20.111	6.207	0.481
1286.001	740.713	80.012	19.994	104.297	20.115	5.950	0.496
1286.501	740.962	80.011	19.993	104.292	20.111	6.240	0.557
1287.001	741.087	80.009	19.994	104.292	20.111	6.195	0.470
1287.501	741.451	80.011	19.993	104.293	20.110	6.290	0.432
1288.001	741.708	80.012	19.995	104.293	20.110	6.288	0.556
1288.501	741.975	80.013	19.994	104.294	20.116	5.881	0.573
1289.001	742.217	80.011	19.994	104.294	20.110	6.280	0.516
1289.501	742.474	80.011	19.994	104.293	20.111	6.234	0.503
1290.001	742.728	80.010	19.995	104.292	20.106	6.579	0.505
1290.501	742.989	80.010	19.994	104.291	20.110	6.311	0.514
1291.000	743.248	80.014	19.995	104.291	20.108	6.423	0.518
1291.501	743.519	80.009	19.995	104.290	20.111	6.230	0.525
